timestamps,TP9,AF7,AF8,TP10
1667247689.920,-1000.000,-1000.000,-546.387,-1000.000
1667247689.924,-485.352,-992.188,-552.246,-1000.000
1667247689.928,-927.734,389.160,-488.281,388.672
1667247689.932,685.059,823.730,-479.492,-976.074
1667247689.936,-900.879,-582.520,-531.250,-455.566
1667247689.940,-981.934,-1000.000,-534.180,-1000.000
1667247689.944,505.371,-57.129,-460.449,-83.984
1667247689.947,-840.332,-923.828,-449.219,-809.570
1667247689.951,-173.828,-96.191,-471.680,174.805
1667247689.955,-1000.000,-1000.000,-511.719,-1000.000
1667247689.959,-88.379,-377.441,-535.156,-294.922
1667247689.963,-789.551,-921.387,-485.352,-828.125
1667247689.963,212.402,214.355,-503.906,239.258
1667247689.967,-1000.000,-1000.000,-559.082,-1000.000
1667247689.971,-270.508,-748.047,-549.805,-684.570
1667247689.975,-812.500,744.141,-470.703,936.523
1667247689.979,346.680,546.875,-471.191,580.078
1667247689.983,-1000.000,-937.500,-539.551,-957.520
1667247689.987,-596.680,-1000.000,-541.992,-1000.000
1667247689.990,992.188,257.324,-444.336,243.164
1667247689.994,817.871,894.043,-400.391,-931.641
1667247689.998,-720.703,-462.402,-573.242,-356.445
1667247690.002,-1000.000,-1000.000,-582.031,-1000.000
1667247690.006,292.480,-154.297,-490.234,-181.152
1667247690.008,-805.664,-912.598,-478.027,-832.031
1667247690.012,-63.965,-19.043,-558.105,171.387
1667247690.016,-1000.000,-1000.000,-566.895,-1000.000
1667247690.020,-210.938,-487.305,-475.098,-339.355
1667247690.024,-811.523,-990.723,-465.820,-847.168
1667247690.028,228.516,290.527,-482.910,282.227
1667247690.032,-1000.000,-1000.000,-513.672,-1000.000
1667247690.035,-294.922,-824.219,-487.793,-800.781
1667247690.039,-825.195,642.090,-480.469,791.016
1667247690.043,451.660,641.602,-527.344,728.027
1667247690.047,-1000.000,-827.637,-587.891,-844.238
1667247690.051,-714.844,-1000.000,-436.523,-1000.000
1667247690.053,870.117,137.207,-368.652,181.641
1667247690.057,951.172,965.332,-518.066,-870.117
1667247690.061,-532.715,-337.891,-528.320,-209.473
1667247690.065,-1000.000,-1000.000,-533.691,-1000.000
1667247690.069,142.578,-225.586,-506.836,-220.215
1667247690.073,-788.086,-908.203,-442.871,-836.914
1667247690.077,36.133,35.156,-459.473,226.074
1667247690.080,-1000.000,-1000.000,-513.672,-1000.000
1667247690.084,-246.094,-585.449,-538.574,-526.367
1667247690.088,-817.383,917.480,-494.629,-923.340
1667247690.092,236.328,352.539,-524.902,363.770
1667247690.096,-1000.000,-1000.000,-578.613,-1000.000
1667247690.099,-398.438,-923.828,-550.781,-1000.000
1667247690.103,-871.094,485.840,-475.586,471.680
1667247690.107,555.664,730.957,-460.938,819.336
1667247690.111,-1000.000,-716.797,-572.266,-762.695
1667247690.115,-822.754,-1000.000,-562.500,-1000.000
1667247690.119,716.797,59.570,-476.074,30.762
1667247690.123,-915.039,-972.168,-371.094,-810.547
1667247690.126,-323.242,-214.844,-420.898,44.922
1667247690.130,-1000.000,-1000.000,-569.336,-1000.000
1667247690.134,45.410,-284.668,-509.277,-243.652
1667247690.138,-777.344,-878.906,-470.215,-818.359
1667247690.142,176.758,170.898,-554.199,237.793
1667247690.144,-1000.000,-1000.000,-590.820,-1000.000
1667247690.148,-265.625,-634.277,-474.609,-457.031
1667247690.152,-809.570,879.395,-430.664,-895.996
1667247690.156,270.996,471.680,-523.438,517.578
1667247690.160,-1000.000,-1000.000,-586.426,-1000.000
1667247690.164,-473.633,-998.047,-468.262,-845.215
1667247690.168,-922.363,379.395,-390.137,703.125
1667247690.171,688.477,827.148,-507.324,987.793
1667247690.175,-900.391,-579.590,-592.285,-467.285
1667247690.179,-968.262,-1000.000,-514.648,-1000.000
1667247690.183,525.879,-46.875,-435.059,-32.715
1667247690.187,-840.332,-914.062,-513.184,-803.711
1667247690.203,-167.480,-80.566,-569.824,137.695
1667247690.207,-1000.000,-1000.000,-566.895,-1000.000
1667247690.211,-78.125,-361.816,-520.508,-265.137
1667247690.215,-787.109,-903.320,-506.836,-818.848
1667247690.219,210.938,232.910,-531.250,251.953
1667247690.223,-1000.000,-1000.000,-521.484,-1000.000
1667247690.227,-271.484,-731.934,-477.539,-565.430
1667247690.230,-811.523,767.090,-455.566,-969.727
1667247690.234,355.957,554.688,-513.184,624.512
1667247690.238,-1000.000,-935.547,-496.094,-912.598
1667247690.242,-572.266,-1000.000,-474.609,-1000.000
1667247690.246,-997.559,293.945,-508.301,283.203
1667247690.248,832.031,902.832,-476.074,-852.539
1667247690.252,-709.473,-454.590,-537.109,-202.637
1667247690.256,-1000.000,-1000.000,-574.707,-1000.000
1667247690.260,340.332,-126.953,-520.996,-161.133
1667247690.264,-806.641,-899.902,-458.008,-815.430
1667247690.268,-57.129,-14.160,-473.145,201.660
1667247690.272,-1000.000,-1000.000,-551.758,-1000.000
1667247690.275,-196.777,-462.402,-526.855,-344.238
1667247690.279,-806.641,-966.309,-427.246,-844.238
1667247690.283,225.098,301.270,-468.750,292.480
1667247690.287,-1000.000,-1000.000,-588.867,-1000.000
1667247690.291,-280.762,-810.547,-557.617,-721.191
1667247690.293,-820.312,659.180,-375.488,871.094
1667247690.297,459.473,656.738,-395.508,752.441
1667247690.301,-1000.000,-816.406,-595.215,-796.875
1667247690.305,-682.617,-1000.000,-517.578,-1000.000
1667247690.309,898.438,167.969,-442.383,160.156
1667247690.313,958.496,968.750,-458.984,-821.777
1667247690.317,-516.602,-332.520,-515.625,-91.797
1667247690.320,-1000.000,-1000.000,-547.363,-1000.000
1667247690.324,164.062,-228.516,-392.578,-183.105
1667247690.328,-784.668,-892.090,-337.402,-814.941
1667247690.332,58.594,76.660,-551.758,220.215
1667247690.336,-1000.000,-1000.000,-569.336,-1000.000
1667247690.338,-249.023,-541.504,-498.535,-424.316
1667247690.342,-813.477,969.238,-490.234,-876.953
1667247690.346,233.398,387.207,-531.250,395.996
1667247690.350,-1000.000,-1000.000,-573.242,-1000.000
1667247690.354,-354.492,-902.832,-508.301,-825.684
1667247690.358,-854.492,534.668,-435.059,742.676
1667247690.362,553.711,732.422,-476.074,875.488
1667247690.365,-1000.000,-715.332,-522.461,-635.742
1667247690.369,-824.219,-1000.000,-482.422,-1000.000
1667247690.373,721.191,54.688,-494.141,0.977
1667247690.377,-920.898,-968.750,-489.746,-821.289
1667247690.381,-331.055,-212.402,-534.180,0.488
1667247690.383,-1000.000,-1000.000,-576.660,-1000.000
1667247690.387,37.109,-290.039,-521.484,-238.770
1667247690.391,-779.297,-890.625,-479.492,-821.777
1667247690.395,168.945,147.949,-543.457,238.770
1667247690.399,-1000.000,-1000.000,-584.961,-1000.000
1667247690.403,-263.672,-634.277,-478.027,-448.242
1667247690.407,-810.547,880.371,-463.867,-900.391
1667247690.410,260.254,445.312,-451.172,584.961
1667247690.414,-1000.000,-1000.000,-487.305,-930.176
1667247690.418,-468.750,-980.469,-569.336,-1000.000
1667247690.422,-917.969,403.320,-457.031,427.246
1667247690.426,669.922,812.012,-442.383,968.750
1667247690.428,-915.527,-598.145,-569.824,-532.227
1667247690.432,-970.215,-1000.000,-579.590,-1000.000
1667247690.436,520.020,-50.781,-474.121,-101.074
1667247690.440,-842.773,-922.852,-460.449,-820.801
1667247690.444,-179.199,-95.215,-564.453,124.512
1667247690.448,-1000.000,-1000.000,-561.523,-1000.000
1667247690.452,-78.613,-375.977,-442.871,-256.348
1667247690.455,-788.086,-918.457,-433.594,-818.359
1667247690.459,210.938,223.145,-548.828,243.164
1667247690.463,-1000.000,-1000.000,-558.594,-1000.000
1667247690.467,-270.996,-749.512,-427.734,-519.043
1667247690.471,-811.523,743.652,-386.719,-927.734
1667247690.473,344.727,551.270,-513.672,564.453
1667247690.477,-1000.000,-938.965,-571.289,-943.359
1667247690.481,-577.148,-1000.000,-528.320,-1000.000
1667247690.485,-994.141,288.574,-491.699,266.602
1667247690.489,805.176,889.160,-487.305,-888.672
1667247690.493,-738.770,-476.074,-530.273,-279.785
1667247690.497,-1000.000,-1000.000,-463.867,-1000.000
1667247690.500,324.219,-137.207,-408.691,-153.809
1667247690.504,-807.129,-900.391,-503.906,-819.336
1667247690.508,-63.965,-8.789,-543.945,185.547
1667247690.512,-1000.000,-1000.000,-561.035,-1000.000
1667247690.516,-197.266,-466.309,-476.562,-333.496
1667247690.520,-807.129,-971.680,-446.777,-841.797
1667247690.524,226.074,288.086,-507.324,288.086
1667247690.528,-1000.000,-1000.000,-549.805,-1000.000
1667247690.532,-284.668,-820.312,-548.828,-730.957
1667247690.536,-820.801,651.855,-467.285,835.938
1667247690.540,435.059,622.559,-415.527,825.195
1667247690.544,-1000.000,-855.469,-502.930,-699.219
1667247690.547,-684.082,-1000.000,-579.590,-1000.000
1667247690.551,897.949,169.434,-507.812,137.695
1667247690.555,940.430,952.148,-472.656,-852.051
1667247690.559,-544.922,-354.980,-545.410,-174.805
1667247690.563,-1000.000,-1000.000,-587.891,-1000.000
1667247690.578,165.039,-210.938,-506.836,-211.426
1667247690.582,-786.621,-895.508,-448.242,-828.125
1667247690.586,43.945,48.828,-515.137,226.562
1667247690.590,-1000.000,-1000.000,-563.965,-1000.000
1667247690.594,-247.559,-552.734,-489.746,-425.781
1667247690.598,-815.430,953.125,-399.414,-876.953
1667247690.602,234.863,364.258,-457.520,384.277
1667247690.605,-1000.000,-1000.000,-570.801,-1000.000
1667247690.609,-371.094,-912.109,-560.059,-869.141
1667247690.613,-858.398,514.160,-363.281,711.914
1667247690.617,530.762,711.914,-368.652,799.805
1667247690.621,-1000.000,-731.934,-610.840,-733.398
1667247690.624,-849.121,-1000.000,-550.293,-1000.000
1667247690.628,691.895,31.738,-458.008,-34.668
1667247690.632,-933.594,-987.305,-486.816,-848.633
1667247690.636,-363.770,-237.305,-562.012,-69.824
1667247690.640,-1000.000,-1000.000,-532.227,-1000.000
1667247690.644,35.645,-294.922,-433.594,-230.469
1667247690.648,-780.762,-894.531,-465.820,-828.125
1667247690.651,165.039,148.926,-569.824,240.723
1667247690.655,-1000.000,-1000.000,-524.414,-1000.000
1667247690.659,-263.184,-616.699,-441.406,-484.863
1667247690.663,-810.547,895.996,-512.207,-905.762
1667247690.667,263.672,470.215,-543.457,499.023
1667247690.669,-1000.000,-1000.000,-562.988,-1000.000
1667247690.673,-462.402,-981.445,-534.180,-1000.000
1667247690.677,-913.574,414.062,-490.723,466.309
1667247690.681,666.504,810.059,-492.188,-975.098
1667247690.685,-919.434,-601.074,-516.113,-462.891
1667247690.689,-964.355,-1000.000,-502.441,-1000.000
1667247690.693,527.832,-50.781,-451.660,-11.230
1667247690.696,-843.750,-928.223,-430.664,-791.504
1667247690.700,-183.594,-105.469,-519.043,181.152
1667247690.704,-1000.000,-1000.000,-588.867,-1000.000
1667247690.708,-68.848,-361.816,-527.832,-270.508
1667247690.712,-786.621,-911.621,-470.703,-814.941
1667247690.713,210.449,206.543,-427.246,303.711
1667247690.717,-1000.000,-1000.000,-507.812,-1000.000
1667247690.721,-270.996,-720.215,-540.527,-612.793
1667247690.725,-811.523,776.367,-428.223,-989.258
1667247690.729,346.680,547.852,-441.406,605.957
1667247690.733,-1000.000,-941.895,-515.137,-931.152
1667247690.737,-570.312,-1000.000,-535.645,-1000.000
1667247690.740,-996.582,271.484,-415.527,288.574
1667247690.744,805.664,868.164,-333.984,-893.066
1667247690.748,-734.863,-467.285,-552.734,-294.922
1667247690.752,-1000.000,-1000.000,-578.613,-1000.000
1667247690.756,345.703,-130.859,-485.840,-140.137
1667247690.761,-808.105,-896.973,-499.512,-814.941
1667247690.765,-62.988,-4.883,-562.500,192.383
1667247690.769,-1000.000,-1000.000,-577.148,-1000.000
1667247690.773,-192.871,-456.543,-501.953,-312.500
1667247690.777,-805.664,-961.914,-472.656,-830.566
1667247690.781,225.098,286.133,-475.098,337.402
1667247690.785,-1000.000,-1000.000,-549.316,-1000.000
1667247690.788,-281.738,-832.031,-405.273,-590.820
1667247690.792,-819.824,629.395,-304.199,-990.723
1667247690.796,442.871,641.113,-523.438,697.266
1667247690.800,-1000.000,-836.914,-576.660,-812.988
1667247690.804,-673.340,-1000.000,-523.438,-1000.000
1667247690.807,906.738,171.387,-494.141,151.855
1667247690.811,947.754,971.680,-513.672,-840.820
1667247690.815,-533.203,-329.590,-558.594,-140.625
1667247690.819,-1000.000,-1000.000,-549.316,-1000.000
1667247690.823,177.734,-205.566,-485.840,-208.008
1667247690.827,-786.133,-892.090,-433.594,-824.219
1667247690.831,44.922,50.293,-477.051,228.516
1667247690.834,-1000.000,-1000.000,-507.324,-1000.000
1667247690.838,-247.559,-545.898,-518.555,-427.246
1667247690.842,-813.965,961.426,-478.027,-877.930
1667247690.846,233.887,363.281,-506.348,439.453
1667247690.850,-1000.000,-1000.000,-586.914,-1000.000
1667247690.849,-350.586,-895.020,-567.383,-839.355
1667247690.853,-852.051,538.086,-471.191,740.723
1667247690.857,543.945,726.562,-472.656,857.910
1667247690.861,-1000.000,-719.238,-598.633,-669.922
1667247690.865,-819.336,-1000.000,-576.172,-1000.000
1667247690.869,730.957,55.664,-437.988,51.270
1667247690.873,-935.547,-984.375,-429.688,-810.547
1667247690.876,-355.957,-237.793,-531.250,13.672
1667247690.880,-1000.000,-1000.000,-565.430,-1000.000
1667247690.884,45.410,-289.551,-506.836,-241.699
1667247690.888,-780.273,-900.879,-295.410,-821.289
1667247690.892,158.691,123.047,-354.980,238.770
1667247690.893,-1000.000,-1000.000,-622.070,-1000.000
1667247690.897,-261.719,-632.324,-525.391,-469.238
1667247690.901,-811.035,874.512,-453.125,-901.855
1667247690.905,255.371,458.984,-506.348,524.414
1667247690.909,-1000.000,-1000.000,-570.801,-1000.000
1667247690.913,-459.961,-989.258,-478.027,-803.711
1667247690.917,-911.133,397.461,-380.859,768.555
1667247690.920,656.250,796.387,-493.652,924.805
1667247690.924,-930.176,-618.652,-575.195,-533.203
1667247690.928,-959.961,-1000.000,-551.758,-1000.000
1667247690.932,532.227,-43.945,-479.980,-99.609
1667247690.936,-846.191,-931.641,-494.141,-822.266
1667247690.953,-188.477,-111.328,-571.777,113.281
1667247690.957,-1000.000,-1000.000,-577.637,-1000.000
1667247690.961,-69.824,-359.375,-519.043,-260.742
1667247690.965,-787.598,-908.691,-493.164,-820.801
1667247690.969,210.449,211.914,-510.742,260.254
1667247690.973,-1000.000,-1000.000,-527.832,-1000.000
1667247690.977,-270.508,-719.238,-495.117,-537.598
1667247690.980,-811.035,780.762,-440.430,-943.359
1667247690.984,331.543,533.691,-482.910,574.219
1667247690.988,-1000.000,-951.660,-504.395,-935.547
1667247690.992,-567.871,-1000.000,-489.746,-1000.000
1667247690.996,-987.305,294.434,-508.789,238.770
1667247690.998,791.504,871.094,-478.516,-857.910
1667247691.002,-759.766,-501.465,-542.969,-208.984
1667247691.006,-1000.000,-1000.000,-570.801,-1000.000
1667247691.010,345.703,-122.559,-507.812,-158.691
1667247691.014,-809.570,-904.785,-463.379,-813.477
1667247691.018,-70.801,-23.926,-487.305,205.078
1667247691.022,-1000.000,-1000.000,-562.988,-1000.000
1667247691.025,-187.988,-452.637,-520.996,-317.871
1667247691.029,-805.176,-964.355,-370.117,-833.496
1667247691.033,224.121,271.484,-406.738,270.996
1667247691.037,-1000.000,-1000.000,-604.980,-1000.000
1667247691.041,-278.320,-816.895,-545.898,-739.746
1667247691.043,-817.871,650.391,-440.430,858.887
1667247691.047,428.223,621.094,-484.863,722.656
1667247691.051,-1000.000,-856.934,-595.215,-842.285
1667247691.055,-673.340,-1000.000,-571.289,-1000.000
1667247691.059,910.156,176.758,-470.215,192.383
1667247691.063,931.152,956.055,-459.473,-831.055
1667247691.067,-558.105,-354.980,-515.137,-120.117
1667247691.070,-1000.000,-1000.000,-555.176,-1000.000
1667247691.074,177.734,-216.309,-392.578,-165.527
1667247691.078,-787.109,-896.973,-334.473,-812.500
1667247691.082,39.062,54.199,-539.062,216.797
1667247691.086,-1000.000,-1000.000,-542.969,-1000.000
1667247691.088,-247.070,-541.504,-478.516,-429.199
1667247691.092,-814.453,965.820,-497.559,-878.418
1667247691.096,233.398,355.469,-546.875,374.023
1667247691.100,-1000.000,-1000.000,-558.594,-1000.000
1667247691.104,-345.703,-890.137,-496.582,-811.035
1667247691.108,-849.121,543.945,-446.289,759.277
1667247691.112,534.668,725.098,-492.188,850.586
1667247691.115,-1000.000,-727.539,-553.711,-670.898
1667247691.119,-804.688,-1000.000,-525.879,-1000.000
1667247691.123,750.488,76.172,-511.230,28.320
1667247691.127,-946.777,-984.863,-508.301,-821.289
1667247691.131,-372.070,-243.164,-516.602,-24.902
1667247691.133,-1000.000,-1000.000,-483.887,-1000.000
1667247691.137,48.828,-288.086,-489.258,-236.816
1667247691.141,-781.250,-899.414,-484.863,-823.242
1667247691.145,150.879,121.582,-523.926,238.770
1667247691.149,-1000.000,-1000.000,-570.312,-1000.000
1667247691.153,-260.254,-623.047,-482.422,-441.406
1667247691.157,-811.035,888.184,-454.102,-897.949
1667247691.160,247.070,437.012,-424.316,583.008
1667247691.164,-1000.000,-1000.000,-499.023,-949.707
1667247691.168,-442.383,-965.820,-584.473,-1000.000
1667247691.172,-902.832,430.664,-481.445,506.836
1667247691.176,647.949,797.852,-483.887,954.102
1667247691.178,-937.012,-618.652,-583.008,-549.316
1667247691.182,-951.172,-1000.000,-582.031,-1000.000
1667247691.186,548.340,-39.062,-472.656,-83.008
1667247691.190,-855.957,-936.523,-443.359,-821.777
1667247691.194,-208.008,-123.535,-550.781,91.309
1667247691.198,-1000.000,-1000.000,-553.223,-1000.000
1667247691.202,-63.477,-363.770,-424.316,-247.559
1667247691.205,-787.109,-913.086,-379.395,-817.871
1667247691.209,209.961,220.703,-547.363,244.141
1667247691.213,-1000.000,-1000.000,-602.539,-1000.000
1667247691.217,-270.508,-709.473,-520.020,-499.512
1667247691.221,-811.035,796.387,-479.492,-919.434
1667247691.223,328.125,536.133,-525.879,556.152
1667247691.227,-1000.000,-948.730,-584.961,-947.754
1667247691.231,-561.035,-1000.000,-537.109,-1000.000
1667247691.235,-980.469,297.363,-489.746,294.922
1667247691.239,779.297,869.141,-491.699,-915.039
1667247691.243,-776.855,-506.348,-544.434,-337.891
1667247691.247,-1000.000,-1000.000,-490.723,-1000.000
1667247691.250,361.816,-121.582,-415.527,-124.023
1667247691.254,-812.012,-899.902,-483.398,-812.988
1667247691.258,-74.707,-15.625,-545.410,188.965
1667247691.262,-1000.000,-1000.000,-542.480,-1000.000
1667247691.266,-181.641,-430.664,-519.043,-310.059
1667247691.268,-803.711,-940.918,-504.883,-831.543
1667247691.272,223.145,280.273,-505.859,289.062
1667247691.276,-1000.000,-1000.000,-537.598,-1000.000
1667247691.280,-271.973,-810.059,-541.504,-727.539
1667247691.284,-814.941,668.457,-479.980,845.703
1667247691.288,414.062,598.633,-439.453,814.453
1667247691.292,-1000.000,-881.348,-508.789,-725.098
1667247691.295,-662.598,-1000.000,-535.156,-1000.000
1667247691.299,920.410,184.570,-485.352,161.621
1667247691.303,921.387,942.871,-448.242,-813.965
1667247691.307,-574.707,-377.441,-488.281,-62.500
1667247691.311,-1000.000,-1000.000,-583.008,-1000.000
1667247691.329,196.777,-192.383,-511.230,-205.566
1667247691.333,-787.598,-888.672,-479.980,-817.871
1667247691.337,37.109,50.293,-545.898,220.215
1667247691.341,-1000.000,-1000.000,-582.031,-1000.000
1667247691.345,-247.070,-540.039,-489.258,-410.156
1667247691.349,-814.453,966.797,-375.488,-871.094
1667247691.353,233.398,345.703,-427.734,383.789
1667247691.356,-1000.000,-1000.000,-547.852,-1000.000
1667247691.360,-343.262,-894.531,-506.836,-786.621
1667247691.364,-847.656,535.645,-395.996,791.016
1667247691.368,527.832,713.867,-472.168,848.145
1667247691.372,-1000.000,-738.281,-600.098,-702.637
1667247691.376,-796.387,-1000.000,-561.523,-1000.000
1667247691.380,758.301,68.359,-372.070,184.082
1667247691.384,-947.266,-980.957,-405.273,-813.477
1667247691.388,-372.559,-232.422,-596.191,-55.664
1667247691.392,-1000.000,-1000.000,-528.809,-1000.000
1667247691.396,57.129,-284.180,-415.527,-223.633
1667247691.400,-781.250,-897.461,-451.172,-822.754
1667247691.403,140.137,120.605,-557.617,238.281
1667247691.407,-1000.000,-1000.000,-524.902,-1000.000
1667247691.411,-258.789,-616.699,-426.758,-475.586
1667247691.415,-812.012,893.555,-491.699,-900.879
1667247691.419,244.141,447.266,-525.391,470.703
1667247691.419,-1000.000,-1000.000,-557.617,-1000.000
1667247691.423,-437.988,-962.891,-555.176,-960.449
1667247691.427,-899.414,441.895,-499.023,535.156
1667247691.431,639.648,791.504,-501.465,998.047
1667247691.435,-946.289,-627.930,-532.715,-480.957
1667247691.439,-944.336,-1000.000,-520.996,-1000.000
1667247691.443,559.082,-34.180,-458.008,-68.359
1667247691.446,-861.816,-946.777,-446.777,-809.570
1667247691.450,-220.215,-144.531,-449.707,145.020
1667247691.454,-1000.000,-1000.000,-482.422,-1000.000
1667247691.458,-62.500,-355.469,-539.062,-270.020
1667247691.462,-787.598,-913.086,-487.305,-820.312
1667247691.464,209.961,200.195,-515.625,243.652
1667247691.468,-1000.000,-1000.000,-585.449,-1000.000
1667247691.472,-270.020,-703.125,-516.113,-523.926
1667247691.476,-811.035,798.828,-434.082,-927.734
1667247691.480,322.266,532.715,-472.168,554.688
1667247691.484,-1000.000,-953.125,-538.574,-956.543
1667247691.488,-552.246,-1000.000,-533.203,-1000.000
1667247691.491,-972.656,307.617,-409.668,299.316
1667247691.495,766.113,860.352,-375.000,-949.219
1667247691.499,-791.504,-516.602,-580.566,-403.809
1667247691.503,-1000.000,-1000.000,-579.590,-1000.000
1667247691.507,369.141,-121.582,-479.004,-125.977
1667247691.508,-814.941,-908.203,-471.191,-815.918
1667247691.512,-88.867,-30.762,-564.453,181.641
1667247691.516,-1000.000,-1000.000,-594.727,-1000.000
1667247691.520,-171.875,-437.012,-502.441,-280.762
1667247691.524,-802.246,-950.195,-456.055,-821.289
1667247691.528,222.168,270.508,-493.652,284.180
1667247691.532,-1000.000,-1000.000,-538.574,-1000.000
1667247691.535,-271.973,-804.688,-483.887,-649.414
1667247691.539,-814.941,671.875,-477.539,955.078
1667247691.543,408.203,601.562,-525.391,666.504
1667247691.547,-1000.000,-874.023,-560.059,-898.926
1667247691.551,-663.574,-1000.000,-422.363,-1000.000
1667247691.553,919.922,171.875,-393.066,300.781
1667247691.557,916.016,954.102,-531.738,-852.539
1667247691.561,-586.426,-362.305,-543.457,-181.152
1667247691.565,-1000.000,-1000.000,-532.227,-1000.000
1667247691.569,209.473,-184.570,-497.559,-192.871
1667247691.573,-789.551,-889.160,-448.730,-822.266
1667247691.577,25.391,40.527,-452.637,225.586
1667247691.580,-1000.000,-1000.000,-487.305,-1000.000
1667247691.584,-242.188,-529.785,-537.598,-418.457
1667247691.588,-813.965,977.539,-499.512,-873.535
1667247691.592,232.910,336.914,-502.930,413.574
1667247691.596,-1000.000,-1000.000,-567.383,-1000.000
1667247691.602,-337.402,-884.277,-543.457,-853.027
1667247691.606,-843.750,554.688,-484.863,727.051
1667247691.610,515.137,697.754,-477.539,835.938
1667247691.614,-1000.000,-757.324,-584.473,-714.355
1667247691.618,-783.691,-1000.000,-561.035,-1000.000
1667247691.622,775.879,82.520,-455.078,90.820
1667247691.626,-961.914,995.605,-374.512,-797.363
1667247691.629,-395.996,-273.926,-453.613,90.332
1667247691.633,-1000.000,-1000.000,-589.355,-1000.000
1667247691.637,68.848,-279.785,-456.543,-250.488
1667247691.641,-781.250,-898.438,-437.500,-814.941
1667247691.645,133.789,117.188,-545.410,236.816
1667247691.643,-1000.000,-1000.000,-599.121,-1000.000
1667247691.647,-257.812,-626.465,-504.883,-462.891
1667247691.651,-812.012,881.348,-447.266,-896.973
1667247691.655,235.840,437.012,-529.785,481.934
1667247691.659,-1000.000,-1000.000,-593.262,-1000.000
1667247691.663,-431.152,-966.309,-469.238,-764.160
1667247691.667,-896.484,426.270,-380.859,811.523
1667247691.670,633.301,797.852,-505.371,917.969
1667247691.674,-957.520,-622.070,-589.844,-537.109
1667247691.678,-926.270,-1000.000,-551.758,-1000.000
1667247691.682,584.961,-19.043,-464.844,-77.637
1667247691.686,-867.676,-947.266,-468.262,-826.172
1667247691.704,-229.980,-149.414,-555.664,59.570
1667247691.708,-1000.000,-1000.000,-558.105,-1000.000
1667247691.712,-52.246,-354.004,-499.512,-252.441
1667247691.716,-786.621,-911.133,-494.141,-822.266
1667247691.720,208.984,200.195,-524.414,242.676
1667247691.724,-1000.000,-1000.000,-527.344,-1000.000
1667247691.728,-270.020,-696.289,-481.934,-473.145
1667247691.731,-810.059,807.129,-444.824,-910.645
1667247691.735,313.477,525.391,-509.277,585.449
1667247691.739,-1000.000,-960.938,-506.348,-922.852
1667247691.743,-538.086,-1000.000,-475.098,-1000.000
1667247691.747,-962.891,320.801,-493.164,298.340
1667247691.749,752.441,854.492,-465.332,-888.184
1667247691.753,-807.617,-528.809,-508.301,-280.273
1667247691.757,-1000.000,-1000.000,-544.434,-1000.000
1667247691.761,384.277,-111.816,-513.672,-155.273
1667247691.765,-817.871,-914.062,-453.613,-815.430
1667247691.769,-100.586,-46.875,-487.305,200.684
1667247691.773,-1000.000,-1000.000,-579.590,-1000.000
1667247691.776,-159.180,-421.875,-534.180,-294.434
1667247691.780,-800.293,-937.500,-446.289,-824.707
1667247691.784,220.703,277.832,-484.375,278.809
1667247691.788,-1000.000,-1000.000,-583.496,-1000.000
1667247691.792,-273.438,-793.457,-545.410,-697.754
1667247691.793,-808.105,690.430,-405.273,916.992
1667247691.797,385.742,593.262,-422.852,666.016
1667247691.801,-1000.000,-879.395,-587.402,-887.695
1667247691.805,-566.406,-1000.000,-521.973,-1000.000
1667247691.809,930.664,185.547,-419.434,193.848
1667247691.813,900.391,937.500,-430.176,-840.820
1667247691.817,-604.004,-386.230,-507.324,-157.227
1667247691.820,-1000.000,-1000.000,-541.992,-1000.000
1667247691.824,219.238,-192.871,-390.137,-128.906
1667247691.828,-790.039,-889.160,-361.816,-805.176
1667247691.832,22.461,52.246,-583.008,209.961
1667247691.836,-1000.000,-1000.000,-590.332,-1000.000
1667247691.838,-237.305,-518.066,-481.934,-387.207
1667247691.842,-812.500,988.770,-478.027,-860.352
1667247691.846,231.934,339.844,-542.969,331.055
1667247691.850,-1000.000,-1000.000,-564.941,-1000.000
1667247691.854,-332.520,-848.633,-499.512,-778.320
1667247691.858,-841.797,610.840,-437.500,800.293
1667247691.862,505.371,679.688,-469.727,854.492
1667247691.865,-1000.000,-776.855,-501.953,-675.781
1667247691.869,-754.395,-1000.000,-481.934,-1000.000
1667247691.873,807.617,106.934,-508.789,89.355
1667247691.877,-966.309,-981.445,-514.160,-812.988
1667247691.881,-397.949,-242.676,-565.430,-15.625
1667247691.898,-1000.000,-1000.000,-588.867,-1000.000
1667247691.902,87.891,-258.301,-526.367,-235.352
1667247691.906,-780.762,-895.508,-478.027,-820.801
1667247691.910,119.629,90.820,-517.578,237.793
1667247691.914,-1000.000,-1000.000,-576.660,-1000.000
1667247691.918,-256.348,-615.234,-470.215,-436.035
1667247691.922,-812.500,894.043,-437.012,-893.555
1667247691.925,235.840,409.668,-399.902,569.336
1667247691.929,-1000.000,-1000.000,-460.449,-983.887
1667247691.933,-424.316,-939.453,-579.590,-951.172
1667247691.937,-891.602,465.820,-501.465,604.980
1667247691.941,625.488,795.410,-504.883,953.125
1667247691.928,-971.680,-630.371,-587.402,-537.109
1667247691.932,-903.320,-1000.000,-585.938,-1000.000
1667247691.936,619.141,-3.418,-465.820,-51.270
1667247691.940,-876.465,-942.383,-432.617,-821.289
1667247691.944,-244.629,-149.902,-554.199,48.828
1667247691.948,-1000.000,-1000.000,-556.152,-1000.000
1667247691.952,-39.551,-347.168,-434.082,-243.164
1667247691.955,-785.645,-908.691,-418.945,-816.895
1667247691.959,200.195,191.406,-541.504,235.840
1667247691.963,-1000.000,-1000.000,-612.305,-1000.000
1667247691.967,-268.555,-690.430,-463.867,-395.996
1667247691.971,-810.059,811.523,-369.141,-871.582
1667247691.973,301.758,524.902,-549.316,544.922
1667247691.977,-1000.000,-965.820,-602.539,-951.172
1667247691.981,-527.832,-1000.000,-525.879,-1000.000
1667247691.985,-953.613,346.191,-478.516,377.930
1667247691.989,732.910,849.121,-481.934,-937.012
1667247691.993,-833.496,-537.598,-544.922,-375.000
1667247691.997,-1000.000,-1000.000,-468.262,-1000.000
1667247692.000,402.832,-110.840,-382.812,-90.332
1667247692.004,-822.266,-912.109,-500.000,-809.082
1667247692.008,-115.234,-45.898,-559.082,157.715
1667247692.012,-1000.000,-1000.000,-539.551,-1000.000
1667247692.016,-149.414,-398.926,-509.766,-290.039
1667247692.022,-798.828,-913.086,-486.328,-827.148
1667247692.026,221.191,266.602,-474.609,291.016
1667247692.030,-1000.000,-1000.000,-535.156,-1000.000
1667247692.034,-253.418,-761.719,-548.828,-651.367
1667247692.038,-870.117,680.176,-479.004,911.621
1667247692.042,307.617,518.555,-419.922,724.121
1667247692.046,-1000.000,-895.020,-495.117,-765.137
1667247692.049,-629.395,-1000.000,-574.707,-1000.000
1667247692.053,961.426,208.496,-489.746,169.922
1667247692.057,874.023,911.621,-466.309,-871.094
1667247692.061,-643.066,-428.711,-554.688,-231.445
1667247692.065,-1000.000,-1000.000,-592.285,-1000.000
1667247692.078,240.723,-172.363,-506.348,-175.781
1667247692.082,-792.969,-886.719,-478.516,-820.312
1667247692.086,5.859,41.016,-554.199,218.750
1667247692.090,-1000.000,-1000.000,-574.219,-1000.000
1667247692.094,-229.980,-502.441,-495.117,-364.258
1667247692.098,-812.012,-995.605,-417.480,-850.098
1667247692.102,230.469,326.660,-475.098,340.820
1667247692.105,-1000.000,-1000.000,-549.316,-1000.000
1667247692.109,-326.172,-878.418,-542.969,-807.617
1667247692.113,-838.379,564.941,-354.980,780.273
1667247692.117,492.676,681.152,-366.699,784.668
1667247692.121,-1000.000,-785.156,-603.027,-793.457
1667247692.123,-747.559,-1000.000,-547.852,-1000.000
1667247692.127,812.500,102.051,-477.539,198.730
1667247692.131,-958.984,-963.867,-511.719,-793.457
1667247692.135,-480.469,-308.105,-576.172,-106.445
1667247692.139,-1000.000,-1000.000,-545.898,-1000.000
1667247692.143,381.348,29.785,-442.871,49.805
1667247692.147,-801.758,-907.715,-433.105,-844.727
1667247692.150,104.492,92.285,-536.133,232.422
1667247692.154,-1000.000,-1000.000,-543.945,-1000.000
1667247692.158,-255.371,-601.562,-449.707,-470.215
1667247692.162,-812.988,909.668,-503.418,-896.973
1667247692.166,235.840,414.551,-533.203,425.293
1667247692.168,-1000.000,-1000.000,-573.242,-1000.000
1667247692.172,-422.852,-942.383,-548.828,-898.438
1667247692.176,-886.719,468.750,-485.352,616.211
1667247692.180,604.004,778.809,-500.000,973.633
1667247692.184,-996.094,-652.344,-543.945,-519.043
1667247692.188,-886.719,-1000.000,-519.043,-1000.000
1667247692.192,639.648,4.395,-453.125,11.719
1667247692.195,-885.254,-951.172,-431.641,-800.781
1667247692.199,-263.184,-169.434,-516.113,103.516
1667247692.203,-1000.000,-1000.000,-560.059,-1000.000
1667247692.207,-26.855,-331.543,-492.676,-264.160
1667247692.211,-785.156,-908.203,-456.543,-821.289
1667247692.213,190.430,158.203,-413.086,258.301
1667247692.217,-1000.000,-1000.000,-486.328,-1000.000
1667247692.221,-266.602,-668.945,-547.363,-537.109
1667247692.225,-811.035,836.426,-455.566,-943.848
1667247692.229,293.945,507.812,-479.492,614.746
1667247692.233,-1000.000,-980.957,-570.801,-939.453
1667247692.237,-521.484,-1000.000,-537.598,-1000.000
1667247692.240,-949.707,355.469,-421.875,443.359
1667247692.244,725.586,845.703,-412.598,-981.445
1667247692.248,-847.168,-543.945,-571.777,-445.312
1667247692.252,-1000.000,-1000.000,-546.387,-1000.000
1667247692.256,428.223,-102.051,-469.238,-136.719
1667247692.259,-827.637,-919.434,-473.633,-823.730
1667247692.263,-132.812,-63.965,-564.941,145.020
1667247692.267,-1000.000,-1000.000,-575.195,-1000.000
1667247692.271,-142.090,-409.180,-505.859,-267.090
1667247692.275,-798.828,-930.176,-499.512,-818.848
1667247692.279,218.750,257.812,-504.883,310.547
1667247692.283,-1000.000,-1000.000,-562.012,-1000.000
1667247692.286,-271.973,-774.902,-419.922,-525.879
1667247692.290,-813.477,712.891,-317.383,-926.270
1667247692.294,393.066,590.332,-505.859,600.586
1667247692.298,-1000.000,-893.066,-583.008,-891.602
1667247692.302,-625.488,-1000.000,-522.461,-1000.000
1667247692.304,972.168,218.750,-444.824,178.711
1667247692.308,854.980,919.434,-480.957,-886.230
1667247692.312,-671.387,-422.363,-538.574,-268.066
1667247692.316,-1000.000,-1000.000,-531.738,-1000.000
1667247692.320,252.930,-166.504,-510.254,-175.781
1667247692.324,-795.410,-891.113,-448.730,-822.266
1667247692.328,-9.766,27.832,-473.145,220.703
1667247692.331,-1000.000,-1000.000,-515.625,-1000.000
1667247692.335,-224.121,-489.746,-533.203,-365.234
1667247692.339,-811.035,-983.887,-501.953,-850.098
1667247692.343,230.469,318.359,-517.578,357.910
1667247692.347,-1000.000,-1000.000,-583.984,-1000.000
1667247692.348,-321.289,-866.211,-551.758,-841.797
1667247692.352,-835.938,587.891,-477.051,734.863
1667247692.356,484.863,659.180,-463.379,827.637
1667247692.360,-1000.000,-806.641,-552.246,-761.230
1667247692.364,-748.535,-1000.000,-553.223,-1000.000
1667247692.368,822.266,105.469,-440.918,208.008
1667247692.372,-993.652,996.094,-425.781,-819.824
1667247692.375,-451.172,-280.762,-540.527,-12.695
1667247692.379,-1000.000,-1000.000,-596.680,-1000.000
1667247692.383,116.699,-243.652,-520.996,-228.516
1667247692.387,-780.273,-884.766,-363.770,-820.312
1667247692.391,105.469,101.074,-435.547,235.352
1667247692.393,-1000.000,-1000.000,-616.211,-1000.000
1667247692.397,-256.836,-602.539,-520.508,-454.590
1667247692.401,-806.641,909.668,-372.559,-887.207
1667247692.405,217.285,398.438,-462.402,409.180
1667247692.409,-1000.000,-1000.000,-589.844,-1000.000
1667247692.413,-332.520,-922.852,-464.355,-739.746
1667247692.417,-893.555,458.008,-410.156,783.691
1667247692.420,591.309,774.902,-516.602,907.715
1667247692.424,-1000.000,-656.250,-597.168,-570.801
1667247692.428,-880.371,-1000.000,-546.875,-1000.000
1667247692.432,644.531,5.371,-464.844,-17.578
1667247692.436,-886.719,-945.312,-496.582,-818.359
1667247692.453,-266.602,-157.715,-569.824,35.156
1667247692.457,-1000.000,-1000.000,-537.598,-1000.000
1667247692.461,-20.020,-331.543,-461.426,-254.395
1667247692.465,-784.180,-906.738,-484.375,-824.707
1667247692.469,188.965,163.086,-536.133,240.723
1667247692.473,-1000.000,-1000.000,-519.043,-1000.000
1667247692.477,-266.602,-678.711,-490.234,-479.492
1667247692.480,-810.547,826.172,-481.445,-911.621
1667247692.484,289.062,500.488,-490.234,566.406
1667247692.488,-1000.000,-990.234,-498.535,-959.473
1667247692.492,-509.766,-1000.000,-478.027,-1000.000
1667247692.496,-942.383,370.605,-498.047,404.785
1667247692.498,714.844,845.703,-479.004,-932.617
1667247692.502,-863.770,-548.340,-550.781,-351.562
1667247692.506,-1000.000,-1000.000,-567.871,-1000.000
1667247692.510,456.055,-86.914,-496.094,-150.391
1667247692.514,-833.496,-931.641,-433.594,-823.242
1667247692.518,-153.809,-93.262,-476.074,154.297
1667247692.522,-1000.000,-1000.000,-555.664,-1000.000
1667247692.525,-129.883,-399.902,-530.273,-286.621
1667247692.529,-797.852,-932.129,-423.828,-827.148
1667247692.533,217.773,239.258,-428.223,286.621
1667247692.537,-1000.000,-1000.000,-602.539,-1000.000
1667247692.541,-271.484,-746.094,-552.734,-626.953
1667247692.543,-812.988,750.000,-479.004,994.141
1667247692.547,383.789,567.383,-525.391,615.723
1667247692.551,-1000.000,-914.062,-595.215,-917.480
1667247692.555,-617.188,-1000.000,-562.500,-1000.000
1667247692.559,980.469,239.746,-459.473,234.863
1667247692.563,839.844,894.043,-445.801,-888.672
1667247692.567,-692.871,-461.426,-504.395,-283.691
1667247692.570,-1000.000,-1000.000,-540.527,-1000.000
1667247692.574,269.043,-169.434,-392.090,-127.441
1667247692.578,-797.852,-895.508,-348.145,-811.523
1667247692.582,-26.367,24.902,-583.008,204.102
1667247692.586,-1000.000,-1000.000,-571.777,-1000.000
1667247692.589,-214.355,-472.656,-487.793,-341.797
1667247692.593,-809.570,-969.727,-508.789,-841.797
1667247692.597,228.516,318.359,-551.758,305.176
1667247692.601,-1000.000,-1000.000,-549.316,-1000.000
1667247692.605,-308.594,-850.586,-477.539,-800.293
1667247692.609,-831.055,612.305,-421.875,796.387
1667247692.613,468.262,649.902,-481.934,739.746
1667247692.616,-1000.000,-820.801,-539.551,-815.918
1667247692.620,-734.375,-1000.000,-486.816,-1000.000
1667247692.624,842.285,127.441,-488.281,96.680
1667247692.628,989.258,994.141,-508.301,-819.824
1667247692.632,-510.742,-319.824,-512.207,-91.309
1667247692.634,-1000.000,-1000.000,-509.766,-1000.000
1667247692.638,224.609,-137.207,-500.488,-126.465
1667247692.642,-792.480,-897.949,-440.430,-824.707
1667247692.646,83.984,80.078,-521.484,213.867
1667247692.650,-1000.000,-1000.000,-569.336,-1000.000
1667247692.654,-252.441,-588.867,-461.426,-359.863
1667247692.658,-813.965,922.852,-434.082,-897.949
1667247692.661,235.840,366.211,-423.340,458.008
1667247692.665,-1000.000,-1000.000,-479.492,-1000.000
1667247692.669,-407.227,-920.898,-562.012,-947.754
1667247692.673,-876.465,493.652,-485.352,593.262
1667247692.677,576.172,755.859,-487.305,903.809
1667247692.679,-1000.000,-687.012,-605.469,-625.977
1667247692.683,-868.164,-1000.000,-593.262,-1000.000
1667247692.687,663.574,35.645,-472.656,-0.488
1667247692.691,-899.414,-955.566,-453.125,-813.477
1667247692.695,-296.387,-183.594,-529.785,47.363
1667247692.699,-1000.000,-1000.000,-531.250,-1000.000
1667247692.703,-2.441,-326.172,-427.246,-244.629
1667247692.706,-783.203,-908.203,-358.398,-819.336
1667247692.710,181.152,155.762,-520.996,237.793
1667247692.714,-1000.000,-1000.000,-596.191,-1000.000
1667247692.718,-265.137,-672.852,-517.090,-467.773
1667247692.722,-811.035,834.961,-489.746,-900.391
1667247692.724,278.320,490.234,-529.297,516.602
1667247692.728,-1000.000,-999.512,-587.402,-1000.000
1667247692.732,-503.418,-1000.000,-538.574,-1000.000
1667247692.736,-938.477,378.418,-488.770,438.965
1667247692.740,705.078,833.984,-503.906,-968.262
1667247692.744,-875.000,-564.453,-559.082,-444.336
1667247692.748,-1000.000,-1000.000,-437.500,-1000.000
1667247692.751,463.379,-87.891,-325.684,-41.016
1667247692.755,-835.449,-926.270,-457.520,-812.012
1667247692.759,-162.598,-86.426,-547.852,103.516
1667247692.763,-1000.000,-1000.000,-550.781,-1000.000
1667247692.767,-122.070,-400.879,-509.277,-287.598
1667247692.769,-796.387,-929.688,-509.766,-832.031
1667247692.773,216.797,242.676,-520.508,268.555
1667247692.777,-1000.000,-1000.000,-547.852,-1000.000
1667247692.781,-271.484,-746.582,-562.988,-615.234
1667247692.785,-812.988,751.953,-501.465,973.145
1667247692.789,372.559,559.082,-443.848,715.332
1667247692.793,-1000.000,-924.805,-513.184,-808.594
1667247692.796,-614.258,-1000.000,-558.594,-1000.000
1667247692.800,982.910,251.465,-476.562,197.754
1667247692.804,831.055,881.836,-415.039,-858.398
1667247692.808,-704.102,-481.445,-487.305,-197.266
1667247692.812,-1000.000,-1000.000,-567.383,-1000.000
1667247692.829,270.996,-162.598,-496.582,-191.895
1667247692.833,-800.293,-898.438,-461.426,-821.289
1667247692.837,-40.527,12.695,-538.574,210.449
1667247692.841,-1000.000,-1000.000,-604.492,-1000.000
1667247692.845,-212.891,-471.191,-525.391,-336.914
1667247692.849,-811.035,-970.215,-416.504,-841.309
1667247692.853,235.352,320.312,-482.422,337.402
1667247692.856,-1000.000,-1000.000,-570.801,-1000.000
1667247692.860,-252.930,-812.012,-517.578,-746.582
1667247692.864,-976.074,510.254,-436.523,710.449
1667247692.868,185.059,438.965,-471.680,537.109
1667247692.872,-1000.000,-813.965,-543.457,-806.641
1667247692.875,-733.398,-1000.000,-542.969,-1000.000
1667247692.879,828.613,101.562,-348.145,169.434
1667247692.883,983.398,990.234,-381.348,-822.266
1667247692.887,-521.484,-321.777,-594.238,-125.977
1667247692.891,-1000.000,-1000.000,-548.828,-1000.000
1667247692.895,222.656,-143.555,-438.965,-125.488
1667247692.899,-793.457,-894.043,-457.520,-834.961
1667247692.902,80.566,93.750,-564.941,231.445
1667247692.906,-1000.000,-1000.000,-536.621,-1000.000
1667247692.910,-251.953,-569.824,-431.152,-456.543
1667247692.914,-813.965,944.336,-482.910,-888.672
1667247692.918,235.352,382.324,-534.180,366.699
1667247692.919,-1000.000,-1000.000,-550.781,-1000.000
1667247692.923,-407.227,-927.246,-511.719,-932.617
1667247692.927,-864.258,491.699,-497.559,576.172
1667247692.931,548.340,751.465,-514.160,926.758
1667247692.935,-977.051,-712.402,-545.410,-659.668
1667247692.939,-666.504,-1000.000,-516.602,-1000.000
1667247692.943,747.559,119.141,-446.777,207.031
1667247692.946,-916.504,-967.773,-461.426,-824.707
1667247692.950,-298.340,-186.523,-491.211,69.336
1667247692.954,-1000.000,-1000.000,-496.094,-1000.000
1667247692.958,15.137,-309.082,-521.973,-252.441
1667247692.962,-780.762,-899.902,-481.445,-821.289
1667247692.965,175.293,143.066,-521.973,239.746
1667247692.969,-1000.000,-1000.000,-589.355,-1000.000
1667247692.973,-264.648,-661.621,-531.738,-539.551
1667247692.977,-811.035,847.168,-442.383,-934.082
1667247692.981,270.996,478.027,-473.633,511.719
1667247692.985,-1000.000,-1000.000,-538.086,-1000.000
1667247692.989,-492.676,-990.234,-551.758,-1000.000
1667247692.992,-934.082,392.578,-440.430,452.637
1667247692.996,701.172,836.914,-394.531,-984.375
1667247693.000,-880.859,-562.988,-590.332,-456.543
1667247693.004,-1000.000,-1000.000,-582.520,-1000.000
1667247693.008,480.957,-72.266,-472.656,-107.910
1667247693.010,-838.867,-927.734,-484.863,-824.219
1667247693.014,-165.039,-89.355,-569.336,107.422
1667247693.018,-1000.000,-1000.000,-575.684,-1000.000
1667247693.022,-61.035,-341.797,-490.234,-210.938
1667247693.026,-941.895,923.828,-460.938,-970.703
1667247693.030,-61.035,-48.340,-500.488,-5.859
1667247693.034,-1000.000,-1000.000,-540.527,-1000.000
1667247693.037,-265.625,-731.934,-482.422,-580.078
1667247693.041,-822.754,750.000,-464.355,-993.164
1667247693.045,370.117,567.871,-524.414,633.301
1667247693.049,-1000.000,-915.527,-594.238,-925.781
1667247693.053,-609.375,-1000.000,-445.801,-1000.000
1667247693.054,985.352,245.605,-348.633,387.207
1667247693.058,831.543,900.391,-512.695,-925.293
1667247693.062,-704.590,-458.496,-529.785,-342.773
1667247693.066,-1000.000,-1000.000,-515.625,-1000.000
1667247693.070,281.738,-154.785,-478.027,-186.523
1667247693.074,-802.734,-897.949,-446.777,-827.637
1667247693.078,-55.664,5.371,-481.445,211.914
1667247693.081,-1000.000,-1000.000,-494.141,-1000.000
1667247693.085,-206.543,-455.566,-516.602,-342.285
1667247693.089,-809.570,-955.566,-502.441,-843.262
1667247693.093,228.027,309.570,-519.531,346.680
1667247693.097,-1000.000,-1000.000,-572.266,-1000.000
1667247693.099,-297.852,-833.008,-553.223,-810.059
1667247693.103,-826.172,641.113,-486.328,800.781
1667247693.107,455.566,634.277,-477.051,724.121
1667247693.111,-1000.000,-834.961,-573.242,-841.309
1667247693.115,-731.934,-1000.000,-544.434,-1000.000
1667247693.119,851.074,132.812,-422.852,122.070
1667247693.123,965.332,957.031,-335.449,-811.035
1667247693.126,-519.531,-352.539,-445.801,-29.785
1667247693.130,-1000.000,-1000.000,-600.098,-1000.000
1667247693.134,143.555,-215.820,-505.371,-217.773
1667247693.138,-783.203,-878.906,-452.637,-817.383
1667247693.142,73.242,92.285,-562.012,229.004
1667247693.145,-1000.000,-1000.000,-617.188,-1000.000
1667247693.149,-250.977,-561.523,-517.090,-421.875
1667247693.153,-814.453,951.660,-442.871,-875.000
1667247693.157,235.352,369.141,-518.555,359.863
1667247693.161,-1000.000,-1000.000,-594.238,-1000.000
1667247693.165,-397.949,-934.082,-459.473,-796.875
1667247693.169,-871.094,475.586,-328.613,774.414
1667247693.172,560.059,738.770,-469.238,848.633
1667247693.176,-1000.000,-708.984,-598.145,-669.922
1667247693.180,-848.633,-1000.000,-571.289,-1000.000
1667247693.184,685.547,43.945,-507.324,17.578
1667247693.188,-908.203,-951.660,-517.090,-816.406
1667247693.205,-314.941,-183.105,-537.109,11.719
1667247693.209,-1000.000,-1000.000,-543.945,-1000.000
1667247693.213,25.879,-295.898,-520.020,-241.211
1667247693.217,-780.273,-890.137,-482.910,-824.219
1667247693.221,170.410,145.508,-524.414,240.234
1667247693.225,-1000.000,-1000.000,-523.926,-1000.000
1667247693.229,-263.672,-657.715,-458.008,-518.555
1667247693.232,-811.035,852.539,-447.266,-922.363
1667247693.236,263.672,466.309,-521.484,496.094
1667247693.240,-1000.000,-1000.000,-493.652,-1000.000
1667247693.244,-484.375,-978.516,-473.145,-1000.000
1667247693.248,-929.199,412.109,-523.438,445.312
1667247693.250,694.824,829.590,-491.211,-941.406
1667247693.254,-888.184,-577.637,-560.059,-376.953
1667247693.258,-997.070,-1000.000,-558.105,-1000.000
1667247693.262,489.746,-57.617,-472.656,-92.285
1667247693.266,-840.332,-932.617,-448.730,-816.895
1667247693.270,-176.758,-113.281,-483.398,114.746
1667247693.274,-1000.000,-1000.000,-548.828,-1000.000
1667247693.277,-103.027,-383.789,-523.438,-288.574
1667247693.281,-792.969,-924.316,-449.707,-832.031
1667247693.285,214.355,221.191,-491.211,249.023
1667247693.289,-1000.000,-1000.000,-599.609,-1000.000
1667247693.293,-271.484,-722.656,-548.340,-586.426
1667247693.295,-812.012,773.926,-413.574,-985.840
1667247693.299,365.723,572.266,-446.777,624.023
1667247693.303,-1000.000,-915.039,-618.652,-914.062
1667247693.307,-592.285,-1000.000,-557.129,-1000.000
1667247693.311,997.559,278.809,-455.078,297.852
1667247693.315,818.359,886.719,-442.871,-914.551
1667247693.319,-717.285,-476.074,-511.719,-337.402
1667247693.322,-1000.000,-1000.000,-546.387,-1000.000
1667247693.326,289.551,-162.598,-340.820,-140.137
1667247693.330,-804.199,-903.809,-300.293,-818.359
1667247693.334,-59.082,3.418,-565.430,185.059
1667247693.338,-1000.000,-1000.000,-589.844,-1000.000
1667247693.340,-202.148,-446.289,-507.812,-332.031
1667247693.344,-808.594,-948.242,-483.887,-841.309
1667247693.348,226.562,310.547,-544.922,304.199
1667247693.352,-1000.000,-1000.000,-581.055,-1000.000
1667247693.356,-289.551,-823.242,-515.625,-764.648
1667247693.360,-823.242,656.250,-428.711,847.168
1667247693.364,450.195,630.371,-466.797,705.566
1667247693.367,-1000.000,-843.750,-516.602,-836.914
1667247693.371,-713.379,-1000.000,-463.379,-1000.000
1667247693.375,868.652,145.996,-490.234,71.289
1667247693.379,958.984,973.145,-496.094,-850.586
1667247693.383,-522.461,-330.566,-543.457,-141.602
1667247693.385,-1000.000,-1000.000,-568.359,-1000.000
1667247693.389,146.484,-207.520,-519.531,-209.961
1667247693.393,-784.668,-881.836,-485.840,-822.754
1667247693.397,58.594,76.172,-548.340,229.980
1667247693.401,-1000.000,-1000.000,-574.707,-1000.000
1667247693.405,-249.023,-548.340,-458.008,-378.418
1667247693.409,-814.941,966.309,-432.617,-857.422
1667247693.412,235.352,356.934,-450.684,433.105
1667247693.416,-1000.000,-1000.000,-499.512,-1000.000
1667247693.420,-386.719,-914.551,-525.391,-935.059
1667247693.424,-866.211,510.742,-451.660,635.254
1667247693.428,552.246,730.957,-501.465,844.727
1667247693.430,-1000.000,-721.191,-590.820,-702.637
1667247693.434,-841.309,-1000.000,-576.660,-1000.000
1667247693.438,694.336,45.898,-479.492,17.578
1667247693.442,-911.133,-953.613,-472.656,-816.895
1667247693.446,-320.312,-187.012,-569.824,6.836
1667247693.450,-1000.000,-1000.000,-548.828,-1000.000
1667247693.454,31.738,-291.504,-433.594,-235.352
1667247693.457,-779.785,-890.137,-409.180,-820.801
1667247693.461,168.457,144.531,-537.598,238.770
1667247693.465,-1000.000,-1000.000,-603.516,-1000.000
1667247693.469,-263.184,-639.160,-465.332,-463.867
1667247693.473,-811.035,882.812,-333.984,-892.578
1667247693.474,259.277,458.496,-481.934,463.867
1667247693.478,-1000.000,-1000.000,-592.773,-1000.000
1667247693.482,-478.516,-978.027,-527.344,-998.535
1667247693.486,-925.293,414.551,-481.445,466.309
1667247693.490,683.105,822.266,-483.398,-966.797
1667247693.494,-902.832,-587.402,-559.570,-454.102
1667247693.498,-979.492,-1000.000,-470.215,-1000.000
1667247693.501,510.254,-59.082,-365.234,29.297
1667247693.505,-842.285,-922.363,-482.422,-801.758
1667247693.509,-177.246,-96.680,-553.223,69.824
1667247693.513,-1000.000,-1000.000,-573.242,-1000.000
1667247693.517,-92.285,-376.465,-516.602,-290.527
1667247693.519,-790.527,-917.480,-480.469,-835.938
1667247693.523,214.844,217.285,-502.441,251.953
1667247693.527,-1000.000,-1000.000,-523.438,-1000.000
1667247693.531,-252.930,-717.773,-522.949,-582.031
1667247693.535,-868.164,784.180,-499.023,960.449
1667247693.539,267.090,554.688,-441.406,715.332
1667247693.543,-1000.000,-936.523,-501.465,-776.855
1667247693.546,-579.590,-1000.000,-577.148,-1000.000
1667247693.550,-997.559,296.387,-502.441,282.227
1667247693.554,810.547,883.789,-469.727,-921.387
1667247693.558,-724.609,-483.398,-531.738,-343.750
1667247693.562,-1000.000,-1000.000,-567.383,-1000.000
1667247693.580,297.363,-143.066,-479.492,-184.570
1667247693.584,-805.176,-902.344,-447.754,-828.125
1667247693.588,-64.453,-8.789,-534.180,188.477
1667247693.592,-1000.000,-1000.000,-565.430,-1000.000
1667247693.596,-202.637,-452.148,-486.816,-297.363
1667247693.600,-809.082,-954.590,-420.410,-828.613
1667247693.604,226.562,304.688,-479.980,345.703
1667247693.607,-1000.000,-1000.000,-558.594,-1000.000
1667247693.611,-285.156,-815.918,-551.758,-725.586
1667247693.615,-822.266,662.109,-366.211,898.438
1667247693.619,452.148,642.578,-355.957,696.777
1667247693.623,-1000.000,-828.613,-604.980,-853.027
1667247693.625,-713.867,-1000.000,-522.949,-1000.000
1667247693.629,870.117,137.207,-429.199,170.410
1667247693.633,958.008,971.680,-498.535,-848.633
1667247693.637,-524.902,-332.031,-574.219,-173.828
1667247693.641,-1000.000,-1000.000,-537.598,-1000.000
1667247693.645,145.020,-218.750,-423.340,-185.547
1667247693.649,-784.180,-880.859,-424.805,-820.801
1667247693.652,62.988,87.891,-554.199,228.516
1667247693.656,-1000.000,-1000.000,-563.477,-1000.000
1667247693.660,-249.512,-539.062,-452.148,-420.898
1667247693.664,-814.453,977.539,-479.980,-871.582
1667247693.668,234.863,381.348,-529.785,356.445
1667247693.670,-1000.000,-1000.000,-573.242,-1000.000
1667247693.674,-383.789,-917.480,-525.391,-951.660
1667247693.678,-864.746,514.160,-477.051,576.660
1667247693.682,548.340,726.562,-487.305,854.492
1667247693.686,-1000.000,-722.168,-539.551,-708.008
1667247693.690,-852.051,-1000.000,-536.133,-1000.000
1667247693.694,708.496,57.129,-456.543,81.543
1667247693.697,-968.262,993.164,-456.055,-861.328
1667247693.701,-412.109,-272.461,-541.992,-24.414
1667247693.705,-1000.000,-1000.000,-563.965,-1000.000
1667247693.709,34.180,-284.180,-512.695,-248.535
1667247693.713,-781.738,-887.695,-493.652,-823.242
1667247693.715,167.969,136.719,-456.543,239.258
1667247693.719,-1000.000,-1000.000,-494.141,-1000.000
1667247693.723,-263.184,-645.020,-540.527,-560.059
1667247693.727,-811.523,866.211,-437.988,-947.754
1667247693.731,258.789,457.520,-449.219,468.750
1667247693.735,-1000.000,-1000.000,-520.996,-1000.000
1667247693.739,-482.422,-982.422,-522.461,-1000.000
1667247693.742,-928.223,401.855,-443.848,441.406
1667247693.746,689.941,833.496,-424.805,-973.633
1667247693.750,-900.391,-575.684,-605.469,-459.473
1667247693.754,-974.121,-1000.000,-584.961,-1000.000
1667247693.758,519.043,-43.945,-486.816,-23.438
1667247693.760,-843.262,-917.480,-497.070,-808.105
1667247693.764,-175.293,-90.820,-556.641,92.773
1667247693.768,-1000.000,-1000.000,-566.406,-1000.000
1667247693.772,-92.773,-387.695,-478.027,-269.043
1667247693.776,-790.527,-926.270,-444.824,-823.730
1667247693.780,212.891,209.961,-463.867,258.301
1667247693.784,-1000.000,-1000.000,-551.758,-1000.000
1667247693.787,-271.484,-739.746,-412.598,-503.906
1667247693.791,-812.012,749.512,-311.035,-925.781
1667247693.795,359.863,578.613,-531.250,608.887
1667247693.799,-1000.000,-917.969,-602.539,-905.762
1667247693.803,-577.148,-1000.000,-552.734,-1000.000
1667247693.804,-997.070,301.270,-505.371,289.062
1667247693.808,824.707,901.855,-479.980,-900.391
1667247693.812,-708.008,-458.984,-525.391,-298.828
1667247693.816,-1000.000,-1000.000,-538.086,-1000.000
1667247693.820,300.293,-143.555,-487.793,-191.406
1667247693.824,-805.664,-903.809,-464.355,-828.613
1667247693.828,-64.941,-14.160,-478.516,197.754
1667247693.831,-1000.000,-1000.000,-493.164,-1000.000
1667247693.835,-202.148,-458.496,-510.254,-347.656
1667247693.839,-809.082,-960.449,-480.957,-847.656
1667247693.843,226.562,306.641,-512.207,350.098
1667247693.847,-1000.000,-1000.000,-588.379,-1000.000
1667247693.850,-284.180,-813.477,-560.547,-748.047
1667247693.854,-821.777,667.969,-497.559,866.699
1667247693.858,450.684,632.812,-500.488,725.586
1667247693.862,-1000.000,-838.867,-554.688,-814.453
1667247693.866,-709.961,-1000.000,-531.250,-1000.000
1667247693.870,876.465,146.973,-419.434,101.074
1667247693.874,949.219,957.031,-405.762,-835.938
1667247693.877,-535.645,-354.004,-518.555,-115.234
1667247693.881,-1000.000,-1000.000,-555.176,-1000.000
1667247693.885,146.484,-215.820,-509.277,-217.285
1667247693.889,-785.156,-889.160,-377.441,-823.730
1667247693.893,56.152,70.312,-432.617,229.004
1667247693.895,-1000.000,-1000.000,-617.188,-1000.000
1667247693.899,-249.023,-540.527,-530.273,-392.578
1667247693.903,-814.941,972.168,-451.172,-862.305
1667247693.907,234.863,380.859,-522.949,368.652
1667247693.911,-1000.000,-1000.000,-562.988,-1000.000
1667247693.915,-376.465,-921.875,-465.332,-811.523
1667247693.919,-861.816,501.953,-347.656,779.785
1667247693.922,544.922,727.051,-445.801,791.992
1667247693.926,-1000.000,-721.191,-591.309,-736.328
1667247693.930,-846.191,-1000.000,-534.180,-1000.000
1667247693.934,689.941,41.504,-464.844,-13.672
1667247693.938,-915.527,-957.031,-499.023,-824.707
1667247693.955,-330.566,-193.848,-577.637,7.812
1667247693.959,-1000.000,-1000.000,-579.102,-1000.000
1667247693.963,36.621,-277.344,-519.043,-239.258
1667247693.967,-779.785,-878.418,-490.723,-824.707
1667247693.971,167.969,149.414,-537.598,240.723
1667247693.975,-1000.000,-1000.000,-522.949,-1000.000
1667247693.979,-262.695,-651.367,-458.984,-526.855
1667247693.982,-811.035,863.281,-427.734,-923.340
1667247693.986,250.000,444.824,-495.605,457.520
1667247693.990,-1000.000,-1000.000,-502.930,-1000.000
1667247693.994,-478.516,-979.980,-452.148,-1000.000
1667247693.998,-923.340,405.273,-504.395,387.207
1667247694.000,670.410,820.801,-501.953,-962.402
1667247694.004,-915.527,-591.797,-566.406,-413.574
1667247694.008,-981.445,-1000.000,-596.680,-1000.000
1667247694.012,561.035,-1.465,-516.602,-40.039
1667247694.016,-949.219,978.027,-468.262,-962.891
1667247694.020,-362.305,-273.926,-505.859,-146.484
1667247694.024,-1000.000,-1000.000,-541.504,-1000.000
1667247694.027,-84.473,-372.559,-528.320,-285.156
1667247694.031,-795.410,-928.223,-424.805,-841.797
1667247694.035,212.402,190.918,-423.828,243.164
1667247694.039,-1000.000,-1000.000,-556.641,-1000.000
1667247694.043,-270.508,-721.191,-523.926,-631.836
1667247694.045,-811.523,772.461,-458.496,980.957
1667247694.049,343.262,548.340,-489.746,614.746
1667247694.053,-1000.000,-940.918,-596.191,-941.406
1667247694.057,-574.219,-1000.000,-570.312,-1000.000
1667247694.061,-993.652,291.992,-469.238,327.148
1667247694.065,808.105,892.090,-453.125,-907.227
1667247694.069,-731.934,-473.633,-522.949,-318.848
1667247694.072,-1000.000,-1000.000,-558.594,-1000.000
1667247694.076,317.383,-144.531,-390.625,-148.926
1667247694.080,-808.105,-905.762,-331.543,-821.777
1667247694.084,-69.336,-13.184,-564.941,166.504
1667247694.088,-1000.000,-1000.000,-578.613,-1000.000
1667247694.090,-199.219,-463.379,-463.379,-324.707
1667247694.094,-808.105,-967.773,-461.914,-842.285
1667247694.098,225.586,310.547,-551.758,293.945
1667247694.102,-1000.000,-1000.000,-576.660,-1000.000
1667247694.106,-278.809,-750.488,-481.934,-672.363
1667247694.110,-818.848,770.508,-430.176,957.520
1667247694.114,441.406,626.465,-499.512,704.102
1667247694.117,-1000.000,-840.332,-546.387,-819.824
1667247694.121,-690.918,-1000.000,-493.164,-1000.000
1667247694.125,898.926,170.898,-493.164,93.750
1667247694.129,928.711,951.660,-500.488,-861.328
1667247694.133,-559.082,-365.723,-506.836,-183.105
1667247694.135,-1000.000,-1000.000,-509.766,-1000.000
1667247694.139,151.367,-210.938,-518.555,-214.355
1667247694.143,-787.109,-892.578,-455.566,-827.148
1667247694.147,43.457,57.617,-503.906,228.027
1667247694.151,-1000.000,-1000.000,-580.566,-1000.000
1667247694.155,-247.070,-532.715,-485.352,-378.906
1667247694.159,-814.941,979.004,-441.895,-858.398
1667247694.162,234.375,362.793,-443.848,466.797
1667247694.166,-1000.000,-1000.000,-493.164,-1000.000
1667247694.170,-361.328,-897.949,-565.430,-968.262
1667247694.174,-854.492,543.457,-485.840,614.746
1667247694.178,530.273,713.379,-481.934,800.293
1667247694.180,-1000.000,-740.723,-582.520,-752.930
1667247694.184,-835.449,-1000.000,-585.938,-1000.000
1667247694.188,707.520,51.270,-494.141,-25.391
1667247694.192,-934.082,-970.703,-469.727,-831.543
1667247694.196,-359.863,-217.285,-562.500,-24.902
1667247694.200,-1000.000,-1000.000,-562.988,-1000.000
1667247694.204,39.062,-284.668,-442.871,-219.727
1667247694.207,-780.762,-885.742,-398.926,-820.801
1667247694.211,163.574,147.461,-547.852,237.793
1667247694.215,-1000.000,-1000.000,-593.750,-1000.000
1667247694.219,-262.207,-641.113,-503.418,-478.027
1667247694.223,-811.523,874.512,-473.145,-896.973
1667247694.225,247.070,442.383,-530.273,423.340
1667247694.229,-1000.000,-1000.000,-568.359,-1000.000
1667247694.233,-474.609,-982.422,-512.695,-1000.000
1667247694.237,-917.969,405.273,-473.145,393.066
1667247694.241,652.344,803.223,-477.051,-960.938
1667247694.245,-935.547,-613.770,-534.180,-485.840
1667247694.249,-965.332,-1000.000,-458.496,-1000.000
1667247694.252,520.508,-52.246,-327.637,139.160
1667247694.256,-844.238,-920.410,-463.867,-807.129
1667247694.260,-184.082,-94.727,-565.918,78.125
1667247694.264,-1000.000,-1000.000,-548.828,-1000.000
1667247694.268,-79.102,-364.746,-512.695,-280.273
1667247694.270,-788.574,-912.598,-490.723,-831.543
1667247694.274,211.426,202.148,-521.484,242.188
1667247694.278,-1000.000,-1000.000,-547.852,-1000.000
1667247694.282,-270.020,-721.191,-528.320,-634.766
1667247694.286,-811.035,778.809,-471.680,969.238
1667247694.290,328.125,533.691,-448.242,648.438
1667247694.294,-1000.000,-958.984,-522.461,-902.832
1667247694.297,-563.965,-1000.000,-561.035,-1000.000
1667247694.301,-986.816,314.941,-511.719,279.785
1667247694.305,794.922,881.836,-433.105,-844.238
1667247694.309,-753.418,-494.141,-486.328,-160.645
1667247694.313,-1000.000,-1000.000,-596.680,-1000.000
1667247694.330,343.262,-122.070,-499.023,-178.711
1667247694.334,-811.035,-902.832,-433.105,-817.871
1667247694.338,-71.777,-21.484,-531.250,172.852
1667247694.342,-1000.000,-1000.000,-579.590,-1000.000
1667247694.346,-178.711,-437.012,-479.492,-285.156
1667247694.350,-863.770,981.934,-362.305,-888.672
1667247694.354,137.207,199.707,-431.641,234.375
1667247694.357,-1000.000,-1000.000,-584.473,-1000.000
1667247694.361,-272.461,-799.316,-540.039,-694.336
1667247694.365,-818.848,675.293,-458.984,914.062
1667247694.369,437.988,638.672,-514.648,719.727
1667247694.373,-1000.000,-836.914,-584.961,-829.590
1667247694.375,-677.246,-1000.000,-528.809,-1000.000
1667247694.379,911.133,169.922,-385.742,219.238
1667247694.383,926.758,957.520,-410.156,-864.258
1667247694.387,-561.523,-356.934,-583.008,-220.703
1667247694.391,-1000.000,-1000.000,-543.457,-1000.000
1667247694.395,168.457,-210.938,-429.199,-198.730
1667247694.399,-787.109,-890.137,-458.984,-825.684
1667247694.402,41.504,62.012,-576.660,222.656
1667247694.406,-1000.000,-1000.000,-545.410,-1000.000
1667247694.410,-247.070,-519.531,-442.383,-386.719
1667247694.414,-813.965,993.652,-490.723,-859.863
1667247694.418,233.398,377.441,-547.852,370.117
1667247694.420,-1000.000,-1000.000,-581.055,-1000.000
1667247694.424,-345.215,-895.996,-549.805,-870.117
1667247694.428,-847.656,552.246,-456.543,708.496
1667247694.432,524.414,704.590,-467.773,801.270
1667247694.436,-1000.000,-749.512,-553.223,-747.559
1667247694.440,-819.824,-1000.000,-502.930,-1000.000
1667247694.444,727.051,57.617,-411.621,31.250
1667247694.447,-938.477,-979.980,-439.453,-817.383
1667247694.451,-368.164,-235.840,-478.516,5.859
1667247694.455,-1000.000,-1000.000,-481.445,-1000.000
1667247694.459,59.082,-264.648,-531.738,-239.258
1667247694.463,-779.297,-878.906,-485.352,-823.242
1667247694.465,159.668,140.137,-517.578,239.746
1667247694.469,-1000.000,-1000.000,-581.543,-1000.000
1667247694.473,-261.719,-612.305,-537.109,-508.301
1667247694.477,-811.035,905.273,-473.145,-915.527
1667247694.481,244.629,439.941,-466.797,477.051
1667247694.485,-1000.000,-1000.000,-529.785,-1000.000
1667247694.489,-458.008,-972.656,-535.156,-999.512
1667247694.492,-911.133,421.875,-443.848,490.234
1667247694.496,652.832,802.734,-419.434,977.539
1667247694.500,-942.383,-617.676,-593.262,-525.879
1667247694.504,-937.012,-1000.000,-598.633,-1000.000
1667247694.508,562.988,-24.414,-500.000,-50.293
1667247694.510,-849.121,-918.457,-499.512,-811.035
1667247694.514,-187.500,-99.609,-580.566,109.375
1667247694.518,-1000.000,-1000.000,-571.777,-1000.000
1667247694.522,-62.988,-355.469,-496.582,-250.977
1667247694.526,-785.645,-905.273,-473.145,-817.871
1667247694.530,209.473,203.125,-483.398,244.141
1667247694.534,-1000.000,-1000.000,-525.391,-1000.000
1667247694.537,-270.508,-717.285,-459.473,-540.039
1667247694.541,-810.547,784.180,-413.574,-944.824
1667247694.545,330.078,542.480,-520.508,595.703
1667247694.549,-1000.000,-948.242,-591.797,-983.887
1667247694.553,-551.758,-1000.000,-470.215,-962.402
1667247694.555,-983.398,303.711,-425.293,524.902
1667247694.559,806.641,902.832,-531.738,-916.016
1667247694.563,-745.117,-465.820,-563.477,-308.594
1667247694.567,-1000.000,-1000.000,-547.852,-1000.000
1667247694.571,376.465,-107.910,-486.328,-151.855
1667247694.575,-812.500,-899.414,-450.195,-818.359
1667247694.579,-75.684,-26.855,-483.398,191.895
1667247694.582,-1000.000,-1000.000,-485.352,-1000.000
1667247694.586,-184.570,-433.594,-499.512,-323.242
1667247694.590,-804.199,-943.359,-443.359,-836.914
1667247694.594,223.633,283.691,-495.605,316.406
1667247694.598,-1000.000,-1000.000,-591.309,-1000.000
1667247694.600,-272.461,-780.762,-548.340,-658.691
1667247694.604,-816.406,705.078,-499.512,941.895
1667247694.608,439.453,634.766,-505.859,737.305
1667247694.612,-1000.000,-844.727,-575.684,-807.617
1667247694.616,-648.438,-1000.000,-556.641,-1000.000
1667247694.620,937.988,202.637,-439.941,206.055
1667247694.624,923.828,948.242,-339.355,-812.012
1667247694.627,-563.965,-376.465,-439.453,-51.758
1667247694.631,-1000.000,-1000.000,-585.938,-1000.000
1667247694.635,196.289,-188.965,-487.305,-210.449
1667247694.639,-786.621,-882.812,-413.574,-813.965
1667247694.643,41.016,62.012,-511.230,224.121
1667247694.643,-1000.000,-1000.000,-590.820,-1000.000
1667247694.647,-241.211,-502.930,-517.090,-343.262
1667247694.651,-811.523,-990.234,-464.355,-843.262
1667247694.655,231.934,381.348,-546.387,416.016
1667247694.659,-1000.000,-1000.000,-589.844,-1000.000
1667247694.663,-331.055,-881.348,-469.727,-704.102
1667247694.667,-844.238,571.289,-381.348,899.902
1667247694.670,537.598,721.191,-494.629,824.219
1667247694.674,-1000.000,-734.863,-591.309,-679.199
1667247694.678,-784.180,-1000.000,-538.086,-1000.000
1667247694.682,770.020,80.566,-469.238,66.895
1667247694.686,-935.059,-965.820,-479.980,-808.105
1667247694.704,-352.051,-216.309,-562.988,17.090
1667247694.708,-1000.000,-1000.000,-557.129,-1000.000
1667247694.712,78.613,-254.883,-477.051,-219.238
1667247694.716,-775.391,-867.188,-503.906,-811.523
1667247694.720,164.551,158.691,-541.504,232.910
1667247694.724,-1000.000,-1000.000,-532.715,-1000.000
1667247694.728,-263.672,-594.727,-476.562,-392.090
1667247694.731,-809.082,925.293,-453.613,-863.770
1667247694.735,259.277,457.031,-524.414,497.559
1667247694.739,-1000.000,-1000.000,-491.211,-1000.000
1667247694.743,-433.594,-958.008,-453.613,-938.477
1667247694.747,-900.391,450.684,-504.883,556.152
1667247694.749,663.574,816.406,-493.652,-952.148
1667247694.753,-933.105,-605.957,-558.594,-395.020
1667247694.757,-916.992,-1000.000,-578.125,-1000.000
1667247694.761,595.703,-12.207,-496.094,7.324
1667247694.765,-849.609,-912.598,-454.590,-788.574
1667247694.769,-181.641,-94.238,-501.953,151.855
1667247694.773,-1000.000,-1000.000,-550.293,-1000.000
1667247694.776,-42.969,-331.543,-520.508,-258.789
1667247694.780,-781.738,-887.207,-438.965,-814.453
1667247694.784,207.031,216.309,-486.328,247.070
1667247694.788,-1000.000,-1000.000,-582.031,-1000.000
1667247694.792,-270.996,-698.730,-550.293,-552.246
1667247694.795,-810.059,807.617,-405.273,-959.473
1667247694.799,339.355,547.363,-390.137,625.000
1667247694.803,-1000.000,-945.312,-577.637,-941.895
1667247694.807,-536.133,-1000.000,-552.246,-1000.000
1667247694.811,-974.121,326.660,-452.637,427.734
1667247694.815,808.105,901.367,-436.523,-875.488
1667247694.819,-744.629,-466.797,-519.043,-258.789
1667247694.822,-1000.000,-1000.000,-557.617,-1000.000
1667247694.826,402.832,-110.352,-375.000,-66.406
1667247694.830,-812.500,-884.766,-317.383,-795.898
1667247694.834,-67.383,3.906,-565.430,181.152
1667247694.838,-1000.000,-1000.000,-575.195,-1000.000
1667247694.840,-180.176,-431.152,-495.117,-314.941
1667247694.844,-802.246,-937.012,-491.699,-833.008
1667247694.848,222.656,291.016,-517.578,302.246
1667247694.852,-1000.000,-1000.000,-551.758,-1000.000
1667247694.856,-272.949,-784.180,-485.840,-614.746
1667247694.860,-816.406,699.707,-434.570,986.816
1667247694.864,441.406,640.625,-504.395,744.141
1667247694.867,-1000.000,-843.750,-548.340,-788.574
1667247694.871,-634.277,-1000.000,-468.262,-1000.000
1667247694.875,949.219,213.379,-470.215,224.121
1667247694.879,928.711,972.656,-496.094,-842.285
1667247694.883,-554.199,-342.773,-553.711,-152.344
1667247694.883,-1000.000,-1000.000,-562.988,-1000.000
1667247694.887,206.543,-187.988,-507.324,-199.219
1667247694.891,-786.621,-883.301,-479.004,-817.383
1667247694.895,36.133,55.176,-538.086,222.656
1667247694.899,-1000.000,-1000.000,-583.496,-1000.000
1667247694.903,-241.211,-507.812,-485.840,-318.848
1667247694.907,-812.012,-995.117,-455.566,-839.355
1667247694.910,231.445,361.328,-425.781,513.672
1667247694.914,-1000.000,-1000.000,-477.051,-1000.000
1667247694.918,-326.660,-867.676,-558.594,-793.945
1667247694.922,-842.285,588.867,-473.145,832.520
1667247694.926,530.762,722.168,-490.234,830.566
1667247694.929,-1000.000,-735.352,-579.102,-684.082
1667247694.933,-780.273,-1000.000,-563.965,-1000.000
1667247694.937,780.762,84.473,-450.195,53.711
1667247694.941,-953.125,-978.516,-442.383,-815.430
1667247694.945,-378.906,-237.793,-560.059,-25.391
1667247694.949,-1000.000,-1000.000,-547.363,-1000.000
1667247694.953,69.824,-266.602,-438.965,-206.055
1667247694.956,-778.320,-879.883,-415.039,-812.012
1667247694.960,152.832,139.648,-539.062,231.445
1667247694.964,-1000.000,-1000.000,-618.652,-1000.000
1667247694.968,-260.742,-610.352,-486.328,-368.652
1667247694.972,-810.547,905.273,-401.367,-851.074
1667247694.973,241.211,438.965,-521.484,443.359,0
1667247694.977,-1000.000,-1000.000,-550.781,-1000.000,0
1667247694.981,-435.059,-970.215,-498.047,-972.168,0
1667247694.985,-890.625,466.797,-478.516,582.031,0
1667247694.989,610.352,728.516,-483.887,892.090,0
1667247694.993,-985.352,-739.258,-548.828,-707.520,0
1667247694.997,-919.922,-1000.000,-464.355,-1000.000,0
1667247695.000,582.520,-25.879,-365.723,93.750,0
1667247695.004,-861.816,-932.129,-517.090,-798.340,0
1667247695.008,-218.262,-120.605,-551.270,90.820,0
1667247695.012,-1000.000,-1000.000,-534.668,-1000.000,0
1667247695.016,-36.621,-326.660,-528.320,-252.441,0
1667247695.019,-783.203,-888.672,-500.000,-817.871,0
1667247695.023,206.543,196.289,-527.344,239.746,0
1667247695.027,-1000.000,-1000.000,-551.758,-1000.000,0
1667247695.031,-269.531,-702.637,-507.812,-524.902,0
1667247695.035,-810.059,808.105,-476.562,-946.289,0
1667247695.039,301.270,508.789,-440.430,642.090,0
1667247695.043,-1000.000,-983.398,-484.863,-903.809,0
1667247695.046,-533.203,-1000.000,-557.617,-1000.000,0
1667247695.050,-965.332,337.402,-507.324,382.812,0
1667247695.054,762.207,867.188,-490.723,-908.203,0
1667247695.058,-800.781,-517.578,-555.664,-324.219,0
1667247695.062,-1000.000,-1000.000,-585.449,-1000.000,0
1667247695.080,402.832,-97.168,-500.488,-110.352,0
1667247695.084,-818.848,-903.809,-452.148,-810.547,0
1667247695.088,-96.680,-39.551,-543.945,173.828,0
1667247695.092,-1000.000,-1000.000,-598.145,-1000.000,0
1667247695.096,-168.945,-428.711,-492.676,-299.316,0
1667247695.100,-802.246,-944.336,-378.418,-828.613,0
1667247695.104,221.680,257.324,-443.848,290.527,0
1667247695.107,-1000.000,-1000.000,-536.133,-1000.000,0
1667247695.111,-271.973,-784.668,-524.902,-625.488,0
1667247695.115,-814.453,696.289,-348.145,972.656,0
1667247695.119,406.738,612.793,-351.074,710.449,0
1667247695.123,-1000.000,-870.605,-615.723,-844.727,0
1667247695.125,-630.371,-1000.000,-551.758,-1000.000,0
1667247695.129,957.520,206.543,-458.984,297.363,0
1667247695.133,893.066,945.801,-497.559,-851.074,0
1667247695.137,-606.445,-381.348,-565.430,-197.754,0
1667247695.141,-1000.000,-1000.000,-546.875,-1000.000,0
1667247695.145,210.449,-188.477,-424.316,-166.016,0
1667247695.149,-792.969,-895.020,-428.711,-814.941,0
1667247695.152,7.812,34.180,-540.527,213.867,0
1667247695.156,-1000.000,-1000.000,-490.723,-1000.000,0
1667247695.160,-240.234,-510.742,-412.598,-353.027,0
1667247695.164,-814.453,999.023,-494.629,-846.680,0
1667247695.168,232.422,347.656,-545.898,374.023,0
1667247695.170,-1000.000,-1000.000,-582.520,-1000.000,0
1667247695.174,-333.008,-866.211,-550.293,-760.742,0
1667247695.178,-824.219,596.191,-494.629,831.055,0
1667247695.182,467.773,694.336,-516.113,820.312,0
1667247695.186,-987.305,-783.691,-540.527,-736.328,0
1667247695.190,-531.250,-1000.000,-497.559,-1000.000,0
1667247695.194,843.262,179.688,-417.969,189.941,0
1667247695.197,-996.094,985.352,-414.062,-825.684,0
1667247695.201,-424.316,-279.785,-535.645,-30.762,0
1667247695.205,-1000.000,-1000.000,-558.594,-1000.000,0
1667247695.209,82.031,-253.906,-488.770,-224.121,0
1667247695.213,-782.715,-887.207,-481.445,-819.336,0
1667247695.216,115.723,103.516,-458.984,236.328,0
1667247695.220,-1000.000,-1000.000,-508.301,-1000.000,0
1667247695.224,-255.371,-582.520,-547.852,-432.617,0
1667247695.228,-812.988,933.594,-474.609,-879.395,0
1667247695.232,236.328,415.527,-505.371,446.289,0
1667247695.236,-1000.000,-1000.000,-552.246,-1000.000,0
1667247695.240,-430.664,-951.660,-539.551,-925.781,0
1667247695.243,-888.672,461.426,-439.941,609.863,0
1667247695.247,601.074,767.090,-389.648,931.152,0
1667247695.251,-994.141,-666.504,-562.500,-584.473,0
1667247695.255,-905.273,-1000.000,-568.359,-1000.000,0
1667247695.259,607.422,-6.348,-468.262,-4.883,0
1667247695.260,-875.000,-945.312,-465.332,-807.617,0
1667247695.264,-246.582,-153.809,-573.730,80.566,0
1667247695.268,-1000.000,-1000.000,-592.773,-1000.000,0
1667247695.272,-33.203,-330.566,-493.652,-249.512,0
1667247695.276,-784.668,-898.438,-482.422,-814.941,0
1667247695.280,198.730,174.805,-511.230,251.465,0
1667247695.284,-1000.000,-1000.000,-555.176,-1000.000,0
1667247695.287,-268.066,-700.684,-420.410,-428.223,0
1667247695.291,-810.547,803.223,-284.668,-877.930,0
1667247695.295,294.922,500.977,-480.957,516.113,0
1667247695.299,-1000.000,-990.234,-591.797,-988.281,0
1667247695.303,-528.809,-1000.000,-531.738,-1000.000,0
1667247695.303,-956.055,349.121,-500.977,401.367,0
1667247695.307,737.305,854.004,-512.207,-916.016,0
1667247695.311,-837.891,-537.598,-547.852,-341.309,0
1667247695.315,-1000.000,-1000.000,-558.594,-1000.000,0
1667247695.319,434.570,-83.496,-505.859,-104.980,0
1667247695.323,-825.195,-912.598,-458.008,-809.082,0
1667247695.327,-120.117,-62.988,-481.934,180.664,0
1667247695.330,-1000.000,-1000.000,-496.094,-1000.000,0
1667247695.334,-149.902,-404.297,-519.043,-293.457,0
1667247695.338,-799.805,-926.270,-498.535,-826.172,0
1667247695.342,219.727,246.094,-534.180,275.391,0
1667247695.346,-1000.000,-1000.000,-578.613,-1000.000,0
1667247695.348,-273.438,-769.043,-531.250,-632.812,0
1667247695.352,-806.641,723.633,-483.398,967.285,0
1667247695.356,375.000,583.496,-513.672,704.102,0
1667247695.360,-1000.000,-895.996,-586.426,-865.234,0
1667247695.364,-534.668,-1000.000,-534.180,-1000.000,0
1667247695.368,955.566,229.004,-444.824,333.984,0
1667247695.372,876.465,918.945,-421.875,-861.328,0
1667247695.375,-633.301,-422.363,-503.418,-199.219,0
1667247695.379,-1000.000,-1000.000,-551.758,-1000.000,0
1667247695.383,235.352,-166.504,-516.113,-190.918,0
1667247695.387,-796.387,-907.227,-341.309,-820.312,0
1667247695.391,-13.184,-3.418,-383.789,214.355,0
1667247695.393,-1000.000,-1000.000,-621.094,-1000.000,0
1667247695.397,-230.957,-500.977,-489.258,-344.727,0
1667247695.401,-813.965,-997.070,-419.922,-843.262,0
1667247695.405,230.957,330.566,-534.668,345.703,0
1667247695.409,-1000.000,-1000.000,-590.332,-1000.000,0
1667247695.413,-320.801,-858.398,-500.977,-643.066,0
1667247695.417,-836.426,600.098,-381.348,959.473,0
1667247695.420,493.164,679.688,-456.543,748.047,0
1667247695.424,-1000.000,-785.645,-594.238,-758.301,0
1667247695.428,-754.883,-1000.000,-546.875,-1000.000,0
1667247695.432,820.801,107.910,-462.402,82.520,0
1667247695.436,-999.512,990.234,-496.094,-833.496,0
1667247695.453,-457.520,-294.922,-573.730,-95.215,0
1667247695.457,-1000.000,-1000.000,-572.754,-1000.000,0
1667247695.461,95.215,-246.094,-501.465,-220.703,0
1667247695.465,-782.715,-885.742,-476.562,-822.266,0
1667247695.469,108.398,103.027,-528.320,236.328,0
1667247695.473,-1000.000,-1000.000,-542.480,-1000.000,0
1667247695.477,-254.883,-582.031,-473.633,-395.020,0
1667247695.480,-813.477,934.570,-454.102,-861.816,0
1667247695.484,236.328,405.762,-528.320,424.805,0
1667247695.488,-1000.000,-1000.000,-484.863,-1000.000,0
1667247695.492,-423.828,-939.453,-450.684,-939.941,0
1667247695.496,-883.301,482.910,-503.418,589.355,0
1667247695.499,584.473,751.465,-491.211,922.363,0
1667247695.503,-1000.000,-687.012,-551.758,-594.727,0
1667247695.507,-902.832,-1000.000,-566.895,-1000.000,0
1667247695.511,642.090,20.996,-493.164,-6.836,0
1667247695.515,-943.848,994.629,-462.402,-865.723,0
1667247695.519,-364.258,-255.859,-513.672,7.324,0
1667247695.523,-1000.000,-1000.000,-555.664,-1000.000,0
1667247695.526,-21.973,-315.918,-529.297,-250.000,0
1667247695.530,-787.109,-903.320,-436.035,-819.824,0
1667247695.534,192.383,151.367,-450.195,238.770,0
1667247695.538,-1000.000,-1000.000,-602.539,-1000.000,0
1667247695.542,-266.602,-675.293,-517.090,-504.395,0
1667247695.545,-811.035,833.496,-429.688,-914.062,0
1667247695.549,284.668,482.910,-516.602,507.812,0
1667247695.553,-1000.000,-1000.000,-583.984,-1000.000,0
1667247695.557,-528.320,-1000.000,-541.504,-1000.000,0
1667247695.561,-950.684,351.074,-458.984,422.852,0
1667247695.565,713.867,829.590,-433.105,-947.266,0
1667247695.569,-866.699,-571.777,-529.785,-402.832,0
1667247695.572,-1000.000,-1000.000,-569.824,-1000.000,0
1667247695.576,437.500,-89.355,-350.586,-75.684,0
1667247695.580,-827.637,-913.574,-292.969,-808.594,0
1667247695.584,-127.441,-55.664,-565.918,147.949,0
1667247695.588,-1000.000,-1000.000,-599.121,-1000.000,0
1667247695.590,-147.949,-393.066,-503.906,-291.016,0
1667247695.594,-799.805,-910.645,-464.355,-829.102,0
1667247695.598,219.727,232.910,-515.625,258.301,0
1667247695.602,-1000.000,-1000.000,-574.219,-1000.000,0
1667247695.606,-271.484,-772.461,-483.398,-651.367,0
1667247695.610,-813.477,715.332,-418.945,962.891,0
1667247695.614,386.719,572.754,-496.094,647.461,0
1667247695.617,-1000.000,-914.551,-557.617,-904.297,0
1667247695.621,-624.023,-1000.000,-509.766,-1000.000,0
1667247695.625,973.145,239.258,-510.254,251.953,0
1667247695.629,851.562,919.434,-512.207,-874.512,0
1667247695.633,-673.828,-427.246,-509.766,-243.652,0
1667247695.635,-1000.000,-1000.000,-497.559,-1000.000,0
1667247695.639,247.070,-164.062,-503.906,-186.035,0
1667247695.643,-799.316,-896.973,-477.051,-823.730,0
1667247695.647,-28.809,10.742,-518.066,212.891,0
1667247695.651,-1000.000,-1000.000,-532.227,-1000.000,0
1667247695.655,-229.492,-496.582,-465.820,-356.934,0
1667247695.659,-814.941,-992.676,-448.730,-849.121,0
1667247695.662,231.445,305.664,-437.500,390.137,0
1667247695.666,-1000.000,-1000.000,-492.676,-1000.000,0
1667247695.670,-318.359,-843.262,-566.406,-786.133,0
1667247695.674,-835.449,620.117,-470.703,827.637,0
1667247695.678,484.375,666.504,-478.516,757.324,0
1667247695.681,-1000.000,-803.223,-588.867,-782.715,0
1667247695.685,-751.953,-1000.000,-578.125,-1000.000,0
1667247695.689,831.055,116.211,-469.727,87.402,0
1667247695.693,980.469,982.422,-472.656,-842.773,0
1667247695.697,-491.699,-308.105,-564.941,-129.883,0
1667247695.701,-1000.000,-1000.000,-544.922,-1000.000,0
1667247695.705,100.098,-247.070,-420.898,-214.355,0
1667247695.708,-785.645,-891.602,-371.094,-824.219,0
1667247695.712,90.820,90.332,-543.457,229.980,0
1667247695.716,-1000.000,-1000.000,-627.930,-1000.000,0
1667247695.720,-252.441,-583.984,-493.164,-391.602,0
1667247695.724,-814.453,930.664,-439.941,-859.863,0
1667247695.725,236.328,397.949,-543.945,399.414,0
1667247695.729,-1000.000,-1000.000,-587.891,-1000.000,0
1667247695.733,-423.828,-940.430,-536.621,-911.621,0
1667247695.737,-882.812,482.422,-483.398,647.461,0
1667247695.741,579.590,741.211,-502.930,866.211,0
1667247695.745,-1000.000,-698.730,-558.594,-707.520,0
1667247695.749,-891.602,-1000.000,-451.172,-1000.000,0
1667247695.752,632.324,-4.883,-356.934,122.559,0
1667247695.756,-895.020,-964.844,-471.191,-797.852,0
1667247695.760,-293.945,-189.941,-531.250,62.500,0
1667247695.764,-1000.000,-1000.000,-548.828,-1000.000,0
1667247695.768,-16.602,-313.477,-517.578,-249.023,0
1667247695.769,-785.156,-896.484,-490.723,-819.824,0
1667247695.773,188.965,161.133,-543.457,239.258,0
1667247695.777,-1000.000,-1000.000,-576.660,-1000.000,0
1667247695.781,-266.113,-667.969,-536.133,-532.227,0
1667247695.785,-811.035,846.191,-479.492,-935.059,0
1667247695.789,278.320,465.820,-440.918,550.781,0
1667247695.793,-1000.000,-1000.000,-501.953,-975.586,0
1667247695.796,-523.926,-1000.000,-541.992,-1000.000,0
1667247695.800,-946.289,358.398,-507.812,361.328,0
1667247695.804,701.660,815.918,-457.520,-899.902,0
1667247695.808,-882.812,-594.727,-461.426,-307.617,0
1667247695.812,-1000.000,-1000.000,-541.016,-1000.000,0
1667247695.814,455.078,-75.684,-505.371,-116.699,0
1667247695.818,-832.031,-918.457,-465.332,-814.941,0
1667247695.822,-146.973,-75.195,-545.410,144.531,0
1667247695.826,-1000.000,-1000.000,-586.426,-1000.000,0
1667247695.830,-134.277,-393.555,-499.023,-284.180,0
1667247695.834,-797.852,-924.316,-418.457,-827.637,0
1667247695.838,218.262,229.980,-465.820,258.301,0
1667247695.841,-1000.000,-1000.000,-554.688,-1000.000,0
1667247695.845,-270.996,-757.812,-513.672,-645.508,0
1667247695.849,-812.988,735.840,-450.684,972.168,0
1667247695.853,374.512,565.918,-530.273,629.883,0
1667247695.857,-1000.000,-919.434,-601.562,-926.758,0
1667247695.873,-619.629,-1000.000,-560.547,-1000.000,0
1667247695.877,974.609,236.328,-361.328,298.340,0
1667247695.881,848.145,918.457,-370.605,-882.324,0
1667247695.885,-679.199,-427.246,-618.652,-273.926,0
1667247695.889,-1000.000,-1000.000,-565.430,-1000.000,0
1667247695.893,253.418,-166.016,-442.871,-154.297,0
1667247695.897,-799.316,-896.973,-469.238,-818.359,0
1667247695.900,-32.227,12.695,-569.336,202.637,0
1667247695.904,-1000.000,-1000.000,-532.227,-1000.000,0
1667247695.908,-225.586,-485.352,-419.434,-360.840,0
1667247695.912,-813.477,-980.957,-475.586,-850.586,0
1667247695.916,230.469,313.965,-536.133,312.012,0
1667247695.918,-1000.000,-1000.000,-574.219,-1000.000,0
1667247695.922,-313.477,-844.238,-544.922,-746.582,0
1667247695.926,-833.008,625.488,-492.676,837.891,0
1667247695.930,481.445,654.297,-475.098,790.527,0
1667247695.934,-1000.000,-816.406,-526.367,-750.000,0
1667247695.938,-743.652,-1000.000,-503.906,-1000.000,0
1667247695.942,838.379,123.047,-442.383,132.812,0
1667247695.945,980.469,979.004,-469.238,-830.566,0
1667247695.949,-494.141,-315.918,-475.098,-105.469,0
1667247695.953,-1000.000,-1000.000,-471.191,-1000.000,0
1667247695.957,122.070,-230.957,-522.949,-223.633,0
1667247695.961,-782.715,-888.672,-500.000,-825.195,0
1667247695.964,85.938,83.008,-528.320,238.281,0
1667247695.968,-1000.000,-1000.000,-601.562,-1000.000,0
1667247695.972,-252.441,-561.523,-534.180,-429.199,0
1667247695.976,-813.965,953.125,-478.027,-877.930,0
1667247695.980,235.352,396.484,-497.559,416.504,0
1667247695.984,-1000.000,-1000.000,-550.781,-1000.000,0
1667247695.988,-405.762,-925.781,-528.809,-851.074,0
1667247695.991,-876.465,502.441,-397.461,721.680,0
1667247695.995,581.543,748.535,-400.391,870.117,0
1667247695.999,-1000.000,-692.383,-587.891,-647.461,0
1667247696.003,-878.418,-1000.000,-573.242,-1000.000,0
1667247696.007,652.344,19.531,-466.797,-12.207,0
1667247696.024,-897.949,-958.008,-479.004,-822.266,0
1667247696.028,-296.387,-186.523,-572.266,7.324,0
1667247696.032,-1000.000,-1000.000,-572.266,-1000.000,0
1667247696.036,-6.348,-312.012,-496.094,-239.258,0
1667247696.040,-783.691,-895.508,-459.961,-821.777,0
1667247696.044,187.012,161.621,-506.348,238.281,0
1667247696.048,-1000.000,-1000.000,-541.992,-1000.000,0
1667247696.051,-266.113,-657.227,-464.355,-452.148,0
1667247696.055,-811.035,856.445,-453.125,-894.531,0
1667247696.059,282.715,483.887,-516.602,507.812,0
1667247696.063,-1000.000,-997.559,-592.285,-1000.000,0
1667247696.067,-518.555,-1000.000,-445.312,-914.062,0
1667247696.053,-945.801,354.004,-351.074,615.723,0
1667247696.057,711.426,834.961,-520.508,995.117,0
1667247696.061,-874.023,-569.336,-548.340,-464.355,0
1667247696.065,-1000.000,-1000.000,-527.832,-1000.000,0
1667247696.069,467.773,-65.918,-491.211,-105.469,0
1667247696.073,-832.031,-913.086,-455.566,-815.918,0
1667247696.077,-148.438,-73.730,-512.207,160.645,0
1667247696.080,-1000.000,-1000.000,-544.922,-1000.000,0
1667247696.084,-115.723,-382.324,-532.715,-281.250,0
1667247696.088,-793.457,-914.062,-499.023,-824.219,0
1667247696.092,215.820,235.840,-486.816,269.531,0
1667247696.096,-1000.000,-1000.000,-534.180,-1000.000,0
1667247696.099,-271.484,-740.234,-539.062,-631.836,0
1667247696.103,-812.988,763.672,-488.770,960.938,0
1667247696.107,369.141,550.293,-456.055,725.098,0
1667247696.111,-1000.000,-937.500,-507.324,-833.496,0
1667247696.115,-609.375,-1000.000,-561.523,-1000.000,0
1667247696.119,979.980,268.066,-478.027,278.320,0
1667247696.123,846.191,895.996,-381.348,-814.453,0
1667247696.126,-686.523,-464.844,-440.430,-74.219,0
1667247696.130,-1000.000,-1000.000,-591.309,-1000.000,0
1667247696.134,279.297,-147.461,-506.836,-188.965,0
1667247696.138,-798.340,-890.137,-451.660,-812.012,0
1667247696.142,-26.855,16.113,-542.480,204.590,0
1667247696.145,-1000.000,-1000.000,-560.059,-1000.000,0
1667247696.149,-219.727,-478.027,-472.168,-338.867,0
1667247696.153,-811.035,-973.633,-454.590,-842.285,0
1667247696.157,229.004,313.477,-533.203,305.176,0
1667247696.161,-1000.000,-1000.000,-586.426,-1000.000,0
1667247696.165,-308.594,-840.820,-468.750,-694.824,0
1667247696.169,-831.543,624.512,-386.230,911.133,0
1667247696.172,479.004,661.621,-506.348,737.793,0
1667247696.176,-1000.000,-810.547,-606.934,-798.828,0
1667247696.180,-735.352,-1000.000,-531.250,-1000.000,0
1667247696.184,846.191,131.348,-433.105,136.719,0
1667247696.188,984.863,994.141,-491.211,-831.543,0
1667247696.204,-516.113,-325.195,-562.500,-150.879,0
1667247696.208,-1000.000,-1000.000,-560.059,-1000.000,0
1667247696.212,222.168,-137.695,-470.215,-125.000,0
1667247696.216,-793.945,-896.484,-454.102,-834.473,0
1667247696.220,74.707,82.031,-536.133,228.027,0
1667247696.224,-1000.000,-1000.000,-528.320,-1000.000,0
1667247696.228,-250.977,-557.129,-466.797,-388.184,0
1667247696.231,-814.453,958.008,-457.031,-859.863,0
1667247696.235,235.352,393.066,-532.227,393.555,0
1667247696.239,-1000.000,-1000.000,-507.324,-1000.000,0
1667247696.243,-395.996,-912.109,-460.938,-881.348,0
1667247696.247,-872.559,523.438,-488.770,668.945,0
1667247696.250,577.637,750.977,-500.977,894.531,0
1667247696.254,-1000.000,-694.336,-563.477,-621.582,0
1667247696.258,-871.582,-1000.000,-569.336,-1000.000,0
1667247696.262,664.551,32.227,-512.207,2.930,0
1667247696.266,-906.738,-968.262,-461.914,-875.977,0
1667247696.270,-307.617,-206.543,-492.188,-60.547,0
1667247696.274,-1000.000,-1000.000,-524.902,-1000.000,0
1667247696.277,-24.902,-324.219,-499.512,-250.000,0
1667247696.281,-788.086,-909.668,-447.266,-829.102,0
1667247696.285,184.082,149.902,-481.445,241.699,0
1667247696.289,-1000.000,-1000.000,-589.355,-1000.000,0
1667247696.293,-264.648,-651.367,-555.664,-553.223,0
1667247696.295,-811.035,861.328,-408.203,-942.383,0
1667247696.299,277.344,478.027,-407.715,487.793,0
1667247696.303,-1000.000,-1000.000,-587.402,-1000.000,0
1667247696.307,-506.348,-1000.000,-545.410,-1000.000,0
1667247696.311,-936.035,384.277,-444.336,396.973,0
1667247696.315,691.895,810.059,-433.105,999.512,0
1667247696.319,-891.602,-599.609,-512.207,-494.141,0
1667247696.322,-1000.000,-1000.000,-554.199,-1000.000,0
1667247696.326,470.703,-74.707,-360.840,-87.891,0
1667247696.330,-837.402,-923.340,-300.293,-821.289,0
1667247696.334,-166.504,-83.496,-578.613,108.887,0
1667247696.338,-1000.000,-1000.000,-586.426,-1000.000,0
1667247696.340,-126.465,-393.066,-476.074,-290.039,0
1667247696.344,-797.852,-923.828,-488.770,-834.473,0
1667247696.348,217.285,230.469,-563.965,243.164,0
1667247696.352,-1000.000,-1000.000,-586.914,-1000.000,0
1667247696.356,-270.020,-748.047,-493.652,-652.832,0
1667247696.360,-812.500,751.953,-423.828,974.121,0
1667247696.364,352.051,539.062,-493.164,561.035,0
1667247696.367,-1000.000,-943.848,-556.152,-960.449,0
1667247696.371,-611.816,-1000.000,-479.980,-1000.000,0
1667247696.375,979.004,249.023,-458.008,202.148,0
1667247696.379,835.938,895.508,-476.074,-918.457,0
1667247696.383,-699.707,-462.402,-559.570,-332.031,0
1667247696.385,-1000.000,-1000.000,-582.031,-1000.000,0
1667247696.389,274.902,-151.367,-513.672,-185.059,0
1667247696.393,-802.246,-903.809,-486.816,-827.637,0
1667247696.397,-54.199,-5.371,-557.617,204.102,0
1667247696.401,-1000.000,-1000.000,-576.172,-1000.000,0
1667247696.405,-213.867,-472.168,-482.910,-327.637,0
1667247696.409,-812.012,-971.680,-447.266,-838.379,0
1667247696.412,230.957,292.969,-424.805,361.816,0
1667247696.416,-1000.000,-1000.000,-474.121,-1000.000,0
1667247696.420,-284.668,-816.895,-551.758,-778.320,0
1667247696.424,-885.254,608.887,-497.070,798.828,0
1667247696.428,377.441,599.609,-474.121,724.121,0
1667247696.430,-1000.000,-819.336,-552.246,-786.621,0
1667247696.434,-726.074,-1000.000,-569.336,-1000.000,0
1667247696.438,852.539,145.996,-475.098,124.512,0
1667247696.442,975.098,991.699,-461.426,-831.543,0
1667247696.446,-500.977,-299.805,-556.641,-106.934,0
1667247696.450,-1000.000,-1000.000,-553.223,-1000.000,0
1667247696.454,137.207,-220.215,-432.617,-206.055,0
1667247696.457,-782.227,-877.441,-437.012,-819.336,0
1667247696.461,83.008,92.285,-545.410,229.492,0
1667247696.465,-1000.000,-1000.000,-598.145,-1000.000,0
1667247696.469,-252.441,-563.965,-473.633,-385.742,0
1667247696.473,-813.965,950.195,-370.117,-857.910,0
1667247696.475,235.352,395.996,-528.320,405.762,0
1667247696.479,-1000.000,-1000.000,-593.750,-1000.000,0
1667247696.483,-399.902,-921.387,-515.137,-858.398,0
1667247696.487,-874.512,507.324,-498.047,688.477,0
1667247696.491,585.449,768.066,-503.418,930.176,0
1667247696.495,-1000.000,-670.898,-541.016,-606.445,0
1667247696.499,-873.535,-1000.000,-461.426,-1000.000,0
1667247696.502,652.344,6.348,-370.605,164.062,0
1667247696.506,-885.742,-940.430,-488.770,-795.410,0
1667247696.510,-269.043,-152.832,-555.176,41.016,0
1667247696.514,-1000.000,-1000.000,-543.457,-1000.000,0
1667247696.518,10.742,-307.129,-515.137,-247.070,0
1667247696.519,-778.809,-884.766,-499.023,-819.824,0
1667247696.523,188.965,178.711,-528.320,239.258,0
1667247696.527,-1000.000,-1000.000,-547.852,-1000.000,0
1667247696.531,-267.578,-657.227,-514.648,-498.535,0
1667247696.535,-810.059,858.398,-459.473,-919.922,0
1667247696.539,286.133,488.770,-444.824,560.547,0
1667247696.543,-1000.000,-998.047,-507.812,-966.309,0
1667247696.546,-505.371,-1000.000,-545.898,-1000.000,0
1667247696.550,-939.941,375.977,-505.371,409.668,0
1667247696.554,711.426,839.355,-479.004,-953.613,0
1667247696.558,-870.605,-560.547,-543.457,-408.203,0
1667247696.562,-1000.000,-1000.000,-575.684,-1000.000,0
1667247696.565,468.262,-75.195,-500.488,-113.281,0
1667247696.569,-830.078,-909.180,-469.727,-816.406,0
1667247696.573,-136.719,-58.105,-549.316,158.203,0
1667247696.577,-1000.000,-1000.000,-596.680,-1000.000,0
1667247696.581,-95.215,-369.629,-510.742,-260.254,0
1667247696.585,-848.633,-970.703,-409.668,-879.883,0
1667247696.589,126.953,164.551,-462.402,177.246,0
1667247696.592,-1000.000,-1000.000,-540.527,-1000.000,0
1667247696.596,-272.461,-753.418,-521.973,-618.652,0
1667247696.600,-815.430,741.211,-347.656,988.281,0
1667247696.604,390.137,585.449,-331.055,645.020,0
1667247696.608,-1000.000,-900.879,-602.051,-900.391,0
1667247696.625,-614.746,-1000.000,-546.387,-1000.000,0
1667247696.629,976.074,241.211,-439.453,268.066,0
1667247696.633,858.398,935.059,-494.141,-869.629,0
1667247696.637,-666.504,-403.320,-589.355,-247.070,0
1667247696.641,-1000.000,-1000.000,-562.500,-1000.000,0
1667247696.645,267.578,-165.039,-443.359,-134.277,0
1667247696.649,-796.387,-887.207,-453.613,-811.523,0
1667247696.652,-17.578,30.762,-571.777,206.055,0
1667247696.656,-1000.000,-1000.000,-546.875,-1000.000,0
1667247696.660,-220.215,-482.910,-417.480,-361.816,0
1667247696.664,-810.547,-976.562,-463.867,-849.609,0
1667247696.668,229.492,317.383,-542.969,300.781,0
1667247696.670,-1000.000,-1000.000,-573.730,-1000.000,0
1667247696.674,-312.500,-852.539,-527.344,-821.777,0
1667247696.678,-832.520,610.352,-495.605,762.207,0
1667247696.682,477.539,660.156,-508.301,756.836,0
1667247696.686,-1000.000,-811.035,-540.527,-808.105,0
1667247696.690,-740.234,-1000.000,-497.070,-1000.000,0
1667247696.694,843.750,126.465,-435.059,131.348,0
1667247696.697,974.121,979.492,-446.289,-837.402,0
1667247696.701,-505.371,-317.383,-530.762,-125.488,0
1667247696.705,-1000.000,-1000.000,-590.332,-1000.000,0
1667247696.709,136.719,-224.609,-518.066,-221.680,0
1667247696.713,-785.156,-891.602,-473.633,-827.637,0
1667247696.716,56.152,64.453,-451.660,239.746,0
1667247696.720,-1000.000,-1000.000,-499.512,-1000.000,0
1667247696.724,-249.023,-562.012,-542.969,-463.379,0
1667247696.728,-815.918,948.730,-471.680,-891.602,0
1667247696.732,235.840,375.488,-501.465,363.281,0
1667247696.736,-1000.000,-1000.000,-536.621,-1000.000,0
1667247696.740,-394.531,-915.039,-534.668,-905.273,0
1667247696.743,-870.117,517.090,-437.988,636.719,0
1667247696.747,561.035,733.398,-397.461,857.422,0
1667247696.751,-1000.000,-715.332,-585.938,-683.594,0
1667247696.755,-859.863,-1000.000,-588.379,-1000.000,0
1667247696.759,675.781,42.480,-455.078,3.906,0
1667247696.760,-910.645,-964.355,-447.266,-824.219,0
1667247696.764,-319.336,-200.195,-543.945,-17.090,0
1667247696.768,-1000.000,-1000.000,-558.594,-1000.000,0
1667247696.772,33.691,-284.180,-499.023,-218.262,0
1667247696.776,-838.379,-954.590,-460.938,-877.441,0
1667247696.780,79.102,44.434,-489.746,149.414,0
1667247696.784,-1000.000,-1000.000,-547.363,-1000.000,0
1667247696.787,-263.184,-664.062,-423.828,-407.715,0
1667247696.791,-814.453,841.309,-310.059,-869.141,0
1667247696.795,263.672,469.727,-494.141,447.754,0
1667247696.799,-1000.000,-1000.000,-585.938,-1000.000,0
1667247696.803,-493.164,-991.699,-523.438,-1000.000,0
1667247696.805,-927.734,402.344,-489.258,427.734,0
1667247696.809,668.945,803.711,-512.207,963.379,0
1667247696.813,-912.109,-609.863,-557.129,-549.805,0
1667247696.817,-998.047,-1000.000,-522.949,-1000.000,0
1667247696.821,479.980,-62.500,-472.168,-73.242,0
1667247696.825,-841.309,-943.359,-441.895,-816.406,0
1667247696.829,-185.547,-129.883,-502.441,130.371,0
1667247696.832,-1000.000,-1000.000,-523.926,-1000.000,0
1667247696.836,-96.191,-374.023,-511.719,-286.133,0
1667247696.840,-791.992,-918.457,-510.254,-829.590,0
1667247696.844,213.379,210.938,-527.344,242.188,0
1667247696.848,-1000.000,-1000.000,-568.359,-1000.000,0
1667247696.850,-270.508,-734.375,-544.922,-630.371,0
1667247696.854,-812.500,766.602,-496.582,988.770,0
1667247696.858,338.867,532.715,-500.488,589.844,0
1667247696.862,-1000.000,-949.707,-566.406,-944.336,0
1667247696.866,-605.469,-1000.000,-542.969,-1000.000,0
1667247696.870,988.281,262.695,-450.195,255.859,0
1667247696.874,811.035,873.535,-437.500,-930.664,0
1667247696.877,-731.934,-495.117,-499.023,-354.980,0
1667247696.881,-1000.000,-1000.000,-540.039,-1000.000,0
1667247696.885,288.574,-135.254,-507.812,-184.570,0
1667247696.889,-805.176,-909.668,-359.375,-828.613,0
1667247696.893,-62.988,-29.297,-428.223,210.449,0
1667247696.909,-1000.000,-1000.000,-610.840,-1000.000,0
1667247696.913,-206.055,-463.867,-513.184,-350.586,0
1667247696.917,-810.547,-967.773,-444.336,-846.680,0
1667247696.921,228.027,294.434,-533.203,278.809,0
1667247696.925,-1000.000,-1000.000,-582.031,-1000.000,0
1667247696.929,-299.805,-837.402,-471.680,-695.801,0
1667247696.933,-826.660,628.906,-355.469,907.715,0
1667247696.936,445.801,632.324,-459.473,698.242,0
1667247696.940,-1000.000,-842.285,-582.520,-835.449,0
1667247696.944,-718.750,-1000.000,-516.113,-1000.000,0
1667247696.948,861.328,142.090,-467.285,102.051,0
1667247696.952,962.891,976.562,-508.789,-847.168,0
1667247696.938,-519.531,-326.172,-568.848,-145.996,0
1667247696.942,-1000.000,-1000.000,-579.590,-1000.000,0
1667247696.946,144.043,-214.355,-509.277,-213.379,0
1667247696.950,-784.668,-884.277,-491.699,-826.172,0
1667247696.954,56.641,73.242,-535.156,227.539,0
1667247696.958,-1000.000,-1000.000,-519.531,-1000.000,0
1667247696.962,-249.023,-562.012,-469.727,-411.621,0
1667247696.965,-815.430,951.660,-442.871,-869.141,0
1667247696.969,235.352,379.883,-500.000,364.258,0
1667247696.973,-1000.000,-1000.000,-502.930,-1000.000,0
1667247696.977,-390.137,-915.527,-441.406,-869.141,0
1667247696.981,-868.652,514.160,-493.164,673.340,0
1667247697.000,561.035,747.070,-513.184,886.230,0
1667247697.004,-1000.000,-702.637,-552.734,-635.254,0
1667247697.008,-851.074,-1000.000,-581.543,-1000.000,0
1667247697.012,685.547,43.945,-531.738,-13.672,0
1667247697.016,-910.156,-959.473,-480.957,-811.523,0
1667247697.020,-317.871,-198.242,-506.348,71.777,0
1667247697.024,-1000.000,-1000.000,-561.523,-1000.000,0
1667247697.027,20.996,-304.688,-533.691,-247.070,0
1667247697.031,-780.762,-899.902,-450.195,-820.312,0
1667247697.035,173.828,140.625,-459.473,239.746,0
1667247697.039,-1000.000,-1000.000,-582.031,-1000.000,0
1667247697.043,-264.648,-648.926,-535.645,-537.598,0
1667247697.044,-811.035,859.863,-442.383,-933.105,0
1667247697.048,273.926,485.352,-498.047,511.719,0
1667247697.052,-1000.000,-1000.000,-610.840,-1000.000,0
1667247697.056,-498.047,-998.047,-548.340,-1000.000,0
1667247697.060,-923.340,404.785,-440.430,441.406,0
1667247697.064,666.504,794.434,-442.871,971.680,0
1667247697.068,-932.617,-631.348,-512.695,-526.855,0
1667247697.071,-995.605,-1000.000,-534.668,-1000.000,0
1667247697.075,480.957,-71.289,-377.441,-109.375,0
1667247697.079,-838.379,-920.898,-278.809,-826.660,0
1667247697.083,-168.945,-80.566,-513.672,106.445,0
1667247697.087,-1000.000,-1000.000,-571.289,-1000.000,0
1667247697.089,-105.469,-381.348,-486.328,-283.203,0
1667247697.093,-792.969,-915.039,-494.629,-832.031,0
1667247697.097,214.844,237.793,-531.250,255.371,0
1667247697.101,-1000.000,-1000.000,-543.945,-1000.000,0
1667247697.105,-271.484,-737.793,-492.676,-634.277,0
1667247697.109,-812.500,760.254,-432.617,984.375,0
1667247697.113,364.746,568.359,-501.465,609.375,0
1667247697.116,-1000.000,-918.945,-551.758,-917.969,0
1667247697.120,-596.191,-1000.000,-482.910,-1000.000,0
1667247697.124,991.211,267.578,-461.426,209.473,0
1667247697.128,831.055,907.227,-503.906,-911.133,0
1667247697.132,-704.102,-451.660,-516.602,-317.871,0
1667247697.133,-1000.000,-1000.000,-483.887,-1000.000,0
1667247697.137,291.504,-147.461,-514.648,-185.547,0
1667247697.141,-802.734,-891.113,-492.676,-826.172,0
1667247697.145,-51.270,14.160,-539.062,211.914,0
1667247697.149,-1000.000,-1000.000,-566.895,-1000.000,0
1667247697.153,-187.012,-449.219,-464.355,-311.523,0
1667247697.157,-865.234,978.516,-443.848,-895.508,0
1667247697.160,139.160,220.215,-434.082,302.246,0
1667247697.164,-1000.000,-1000.000,-480.469,-1000.000,0
1667247697.168,-294.434,-824.707,-560.547,-827.148,0
1667247697.172,-827.637,645.996,-482.422,791.016,0
1667247697.176,459.473,652.344,-487.305,729.492,0
1667247697.178,-1000.000,-822.266,-601.074,-826.172,0
1667247697.182,-710.938,-1000.000,-570.801,-1000.000,0
1667247697.186,869.629,147.949,-475.586,102.539,0
1667247697.190,967.773,987.793,-488.770,-840.820,0
1667247697.194,-508.789,-305.176,-566.895,-128.418,0
1667247697.198,-1000.000,-1000.000,-550.781,-1000.000,0
1667247697.202,146.484,-222.168,-453.125,-206.055,0
1667247697.205,-782.715,-880.371,-320.312,-823.242,0
1667247697.209,71.777,89.844,-462.891,227.051,0
1667247697.213,-1000.000,-1000.000,-625.488,-1000.000,0
1667247697.217,-250.977,-561.035,-502.441,-419.434,0
1667247697.221,-813.965,953.125,-449.707,-872.559,0
1667247697.223,234.863,385.742,-522.461,372.070,0
1667247697.227,-1000.000,-1000.000,-574.707,-1000.000,0
1667247697.231,-384.766,-919.434,-515.137,-894.043,0
1667247697.235,-866.211,512.207,-475.098,645.508,0
1667247697.239,561.523,741.211,-482.422,892.578,0
1667247697.243,-1000.000,-701.660,-552.246,-669.922,0
1667247697.247,-859.375,-1000.000,-460.449,-1000.000,0
1667247697.250,729.492,60.547,-325.684,215.332,0
1667247697.254,985.840,953.613,-481.445,-910.645,0
1667247697.258,-498.047,-343.750,-562.500,-195.801,0
1667247697.262,-1000.000,-1000.000,-531.738,-1000.000,0
1667247697.266,34.180,-288.574,-501.465,-238.770,0
1667247697.268,-784.668,-892.578,-497.070,-831.055,0
1667247697.272,171.387,147.949,-532.715,240.723,0
1667247697.276,-1000.000,-1000.000,-539.062,-1000.000,0
1667247697.280,-263.672,-642.578,-523.438,-535.645,0
1667247697.284,-810.547,870.605,-469.727,-933.105,0
1667247697.288,263.184,462.891,-449.707,528.320,0
1667247697.292,-1000.000,-1000.000,-532.227,-1000.000,0
1667247697.295,-472.656,-977.539,-552.246,-1000.000,0
1667247697.299,-919.922,419.922,-499.023,436.035,0
1667247697.303,675.293,816.406,-443.359,-904.785,0
1667247697.307,-909.668,-599.609,-493.164,-321.777,0
1667247697.311,-976.074,-1000.000,-557.617,-1000.000,0
1667247697.314,513.184,-50.293,-451.172,-58.594,0
1667247697.318,-842.773,-926.758,-448.730,-810.547,90
1667247697.322,-179.688,-102.051,-557.617,87.402,0
1667247697.326,-1000.000,-1000.000,-575.684,-1000.000,0
1667247697.330,-87.891,-371.582,-486.816,-275.879,0
1667247697.334,-790.039,-914.551,-430.664,-830.078,0
1667247697.338,212.402,218.262,-483.398,254.883,0
1667247697.341,-1000.000,-1000.000,-579.590,-1000.000,0
1667247697.345,-270.996,-718.750,-540.527,-595.215,0
1667247697.349,-811.523,782.227,-458.008,-983.398,0
1667247697.353,349.121,551.758,-523.438,594.727,0
1667247697.357,-1000.000,-933.594,-599.121,-937.012,0
1667247697.374,-581.543,-1000.000,-560.547,-1000.000,0
1667247697.378,-994.629,280.273,-340.820,296.387,0
1667247697.382,800.781,879.395,-306.641,-934.570,0
1667247697.386,-742.676,-488.770,-549.805,-380.859,0
1667247697.390,-1000.000,-1000.000,-544.434,-1000.000,0
1667247697.394,314.453,-141.602,-412.109,-120.605,0
1667247697.398,-807.129,-901.367,-455.078,-816.406,0
1667247697.401,-67.383,-8.789,-587.891,180.664,0
1667247697.405,-1000.000,-1000.000,-546.875,-1000.000,0
1667247697.409,-195.801,-442.383,-439.941,-327.148,0
1667247697.413,-807.129,-946.777,-505.859,-839.355,0
1667247697.417,225.098,292.480,-550.781,274.414,0
1667247697.419,-1000.000,-1000.000,-572.266,-1000.000,0
1667247697.423,-279.297,-812.988,-539.551,-752.930,0
1667247697.427,-813.477,667.969,-491.699,853.516,0
1667247697.431,415.039,619.629,-509.277,697.754,0
1667247697.435,-1000.000,-854.980,-545.410,-856.445,0
1667247697.439,-629.883,-1000.000,-496.094,-1000.000,0
1667247697.443,887.207,165.039,-437.500,129.395,0
1667247697.446,932.129,955.078,-467.773,-844.727,0
1667247697.450,-561.523,-362.305,-478.027,-153.320,0
1667247697.454,-1000.000,-1000.000,-486.816,-1000.000,0
1667247697.458,177.246,-192.383,-530.762,-208.984,0
1667247697.462,-787.109,-885.254,-493.652,-825.195,0
1667247697.473,40.039,55.176,-534.180,230.957,0
1667247697.477,-1000.000,-1000.000,-583.496,-1000.000,0
1667247697.481,-250.977,-529.785,-529.785,-419.922,0
1667247697.485,-800.293,987.305,-460.938,-867.188,0
1667247697.489,197.754,333.496,-483.887,322.266,0
1667247697.493,-1000.000,-1000.000,-541.016,-1000.000,0
1667247697.497,-184.082,-841.309,-498.047,-791.016,0
1667247697.500,-874.023,525.879,-422.852,712.891,0
1667247697.504,530.273,705.566,-421.875,806.152,0
1667247697.508,-1000.000,-747.559,-587.891,-739.746,0
1667247697.512,-821.289,-1000.000,-565.430,-1000.000,0
1667247697.516,725.586,63.965,-462.402,45.410,0
1667247697.509,-937.988,-972.168,-500.488,-822.754,0
1667247697.513,-364.258,-222.656,-579.102,-43.945,0
1667247697.517,-1000.000,-1000.000,-586.914,-1000.000,0
1667247697.521,49.805,-278.320,-503.906,-234.863,0
1667247697.525,-780.273,-892.090,-464.355,-824.707,0
1667247697.529,151.367,119.141,-498.535,239.258,0
1667247697.533,-1000.000,-1000.000,-526.367,-1000.000,0
1667247697.536,-260.254,-632.812,-467.773,-460.938,0
1667247697.540,-812.500,881.836,-459.473,-898.926,0
1667247697.544,240.723,439.453,-501.465,488.770,0
1667247697.548,-1000.000,-1000.000,-562.500,-1000.000,0
1667247697.552,-465.332,-979.004,-457.520,-863.281,0
1667247697.554,-915.527,409.668,-367.676,697.754,0
1667247697.558,655.273,808.594,-521.973,933.594,0
1667247697.562,-935.059,-610.840,-573.730,-541.992,0
1667247697.566,-956.543,-1000.000,-547.852,-1000.000,0
1667247697.570,541.992,-32.227,-499.023,-107.910,0
1667247697.574,-856.445,-944.336,-451.172,-823.730,0
1667247697.578,-208.008,-131.836,-499.023,128.418,0
1667247697.581,-1000.000,-1000.000,-510.742,-1000.000,0
1667247697.585,-76.660,-354.980,-496.582,-281.250,0
1667247697.589,-789.062,-906.738,-500.000,-828.613,0
1667247697.593,211.426,201.660,-513.672,242.188,0
1667247697.597,-1000.000,-1000.000,-522.461,-1000.000,0
1667247697.599,-270.020,-706.055,-518.066,-606.445,0
1667247697.603,-811.035,798.828,-506.836,-997.559,0
1667247697.607,320.801,527.344,-520.508,608.887,0
1667247697.611,-1000.000,-956.543,-588.379,-934.082,0
1667247697.615,-565.430,-1000.000,-558.594,-1000.000,0
1667247697.619,-983.398,299.316,-445.312,276.367,0
1667247697.623,777.344,854.980,-372.070,-874.512,0
1667247697.626,-773.438,-526.855,-456.543,-240.234,0
1667247697.630,-1000.000,-1000.000,-579.590,-1000.000,0
1667247697.634,335.938,-126.953,-508.789,-184.570,0
1667247697.638,-810.547,-904.297,-452.148,-825.195,0
1667247697.642,-75.684,-20.508,-552.246,175.781,0
1667247697.644,-1000.000,-1000.000,-598.633,-1000.000,0
1667247697.648,-191.406,-446.289,-482.910,-319.824,0
1667247697.652,-806.641,-953.125,-460.449,-838.379,0
1667247697.656,224.609,290.039,-548.340,282.227,0
1667247697.660,-1000.000,-1000.000,-587.402,-1000.000,0
1667247697.664,-275.879,-815.430,-484.375,-654.297,0
1667247697.668,-817.383,658.203,-355.469,960.938,0
1667247697.671,426.270,619.629,-463.379,656.738,0
1667247697.675,-1000.000,-854.492,-597.168,-863.770,0
1667247697.679,-690.430,-1000.000,-518.066,-1000.000,0
1667247697.683,898.926,160.156,-449.219,100.098,0
1667247697.687,920.410,953.613,-489.258,-872.559,0
1667247697.689,-580.078,-366.699,-562.500,-209.961,0
1667247697.693,-1000.000,-1000.000,-567.871,-1000.000,0
1667247697.697,178.711,-196.777,-510.742,-204.590,0
1667247697.701,-788.086,-889.648,-500.000,-826.660,0
1667247697.705,36.621,51.270,-522.461,221.680,0
1667247697.709,-1000.000,-1000.000,-534.180,-1000.000,0
1667247697.713,-246.582,-529.297,-471.191,-365.723,0
1667247697.716,-814.941,981.445,-417.969,-849.121,0
1667247697.720,233.887,351.074,-511.719,312.012,0
1667247697.724,-1000.000,-1000.000,-511.230,-1000.000,0
1667247697.728,-350.098,-891.113,-437.500,-923.828,0
1667247697.732,-848.633,551.270,-507.324,613.281,0
1667247697.750,515.137,703.125,-487.793,833.984,0
1667247697.754,-1000.000,-756.836,-540.527,-719.727,0
1667247697.758,-807.617,-1000.000,-576.172,-1000.000,0
1667247697.762,743.652,76.172,-506.348,2.930,0
1667247697.766,-951.172,-979.492,-476.562,-808.105,0
1667247697.770,-384.766,-238.281,-503.906,77.637,0
1667247697.774,-1000.000,-1000.000,-536.133,-1000.000,0
1667247697.777,57.129,-267.090,-507.812,-248.535,0
1667247697.781,-781.738,-890.137,-457.520,-819.824,0
1667247697.785,142.090,111.328,-490.723,239.258,0
1667247697.789,-1000.000,-1000.000,-586.914,-1000.000,0
1667247697.793,-258.789,-626.953,-549.805,-537.109,0
1667247697.795,-812.012,884.766,-414.551,-929.199,0
1667247697.799,235.840,435.059,-434.570,432.617,0
1667247697.803,-1000.000,-1000.000,-588.379,-1000.000,0
1667247697.807,-449.219,-967.285,-540.527,-997.070,0
1667247697.811,-904.785,430.176,-448.730,465.820,0
1667247697.815,636.230,795.898,-434.082,998.535,0
1667247697.819,-953.125,-625.977,-535.645,-490.723,0
1667247697.822,-941.895,-1000.000,-560.059,-1000.000,0
1667247697.826,558.105,-33.691,-388.672,-69.336,0
1667247697.830,-858.887,-929.688,-330.078,-826.660,0
1667247697.834,-211.426,-116.699,-538.574,45.410,0
1667247697.838,-1000.000,-1000.000,-573.242,-1000.000,0
1667247697.839,-71.777,-360.840,-473.633,-270.508,0
1667247697.843,-788.574,-912.109,-470.215,-833.984,0
1667247697.847,210.938,197.266,-554.199,243.652,0
1667247697.851,-1000.000,-1000.000,-572.266,-1000.000,0
1667247697.855,-269.531,-705.078,-483.398,-605.957,0
1667247697.859,-810.547,795.898,-430.176,-989.258,0
1667247697.863,316.406,533.691,-516.602,561.035,0
1667247697.866,-1000.000,-960.449,-586.426,-964.355,0
1667247697.870,-543.945,-1000.000,-484.863,-1000.000,0
1667247697.874,-981.934,306.641,-489.746,287.109,0
1667247697.878,750.977,842.285,-483.887,-933.105,0
1667247697.882,-783.203,-505.859,-522.461,-363.281,0
1667247697.884,-1000.000,-1000.000,-559.082,-1000.000,0
1667247697.888,359.375,-120.117,-497.070,-180.176,0
1667247697.892,-818.359,-912.598,-473.633,-830.078,0
1667247697.896,-104.004,-44.434,-530.762,172.852,0
1667247697.900,-1000.000,-1000.000,-570.801,-1000.000,0
1667247697.904,-184.082,-437.988,-468.262,-306.152,0
1667247697.908,-806.641,-950.195,-439.453,-833.984,0
1667247697.911,224.121,269.531,-435.547,341.309,0
1667247697.915,-1000.000,-1000.000,-472.656,-1000.000,0
1667247697.919,-271.484,-779.297,-551.270,-749.512,0
1667247697.923,-814.453,708.496,-475.586,886.230,0
1667247697.927,407.715,603.027,-484.375,647.461,0
1667247697.930,-1000.000,-874.023,-575.684,-886.230,0
1667247697.934,-663.574,-1000.000,-536.621,-1000.000,0
1667247697.938,927.246,181.152,-451.660,100.098,0
1667247697.942,896.973,943.848,-441.895,-888.184,0
1667247697.946,-608.398,-382.812,-561.523,-251.465,0
1667247697.950,-1000.000,-1000.000,-566.895,-1000.000,0
1667247697.954,192.383,-195.312,-459.473,-187.988,0
1667247697.957,-790.039,-885.742,-448.730,-826.660,0
1667247697.961,27.832,59.082,-559.570,219.238,0
1667247697.965,-1000.000,-1000.000,-606.934,-1000.000,0
1667247697.969,-245.605,-526.855,-485.840,-391.602,0
1667247697.973,-814.941,982.910,-401.367,-860.352,0
1667247697.974,233.887,346.680,-531.250,314.453,0
1667247697.978,-1000.000,-1000.000,-597.168,-1000.000,0
1667247697.982,-346.680,-897.461,-523.926,-889.648,0
1667247697.986,-846.191,546.387,-453.125,666.016,0
1667247697.990,503.906,694.824,-460.938,804.199,0
1667247697.994,-1000.000,-764.160,-541.504,-776.367,0
1667247697.998,-797.363,-1000.000,-481.934,-1000.000,0
1667247698.001,752.930,58.105,-320.801,150.391,0
1667247698.005,-954.102,-971.680,-449.707,-821.777,0
1667247698.009,-390.625,-224.121,-590.332,-73.730,0
1667247698.013,-1000.000,-1000.000,-571.777,-1000.000,0
1667247698.017,73.242,-260.742,-505.371,-234.375,0
1667247698.020,-780.762,-881.836,-485.352,-829.102,0
1667247698.024,135.254,122.070,-543.457,241.699,0
1667247698.028,-1000.000,-1000.000,-571.777,-1000.000,0
1667247698.032,-257.812,-619.141,-531.250,-539.062,0
1667247698.036,-812.012,895.508,-461.426,-930.664,0
1667247698.040,235.840,418.945,-441.406,457.520,0
1667247698.044,-1000.000,-1000.000,-490.723,-1000.000,0
1667247698.047,-437.988,-958.008,-526.367,-1000.000,0
1667247698.051,-895.996,444.336,-512.207,442.871,0
1667247698.055,616.699,785.156,-466.797,-998.047,0
1667247698.059,-976.074,-642.090,-529.297,-487.305,0
1667247698.063,-919.922,-1000.000,-586.914,-1000.000,0
1667247698.065,586.914,-15.137,-513.672,-84.961,0
1667247698.069,-867.188,-936.035,-473.633,-827.148,0
1667247698.073,-226.562,-133.789,-555.664,62.988,0
1667247698.077,-1000.000,-1000.000,-586.426,-1000.000,0
1667247698.081,-53.223,-351.074,-500.488,-273.926,0
1667247698.085,-787.109,-909.180,-412.109,-833.008,0
1667247698.089,201.172,188.477,-467.285,243.652,0
1667247698.092,-1000.000,-1000.000,-537.109,-1000.000,0
1667247698.096,-268.066,-698.242,-490.234,-593.262,0
1667247698.100,-810.547,805.664,-365.723,-978.027,0
1667247698.104,303.711,518.066,-405.762,544.922,0
1667247698.108,-1000.000,-971.680,-611.816,-985.352,0
1667247698.125,-532.227,-1000.000,-551.270,-1000.000,0
1667247698.129,-960.449,332.031,-460.938,346.680,0
1667247698.133,750.000,868.652,-499.023,-957.520,0
1667247698.137,-810.547,-511.719,-598.633,-445.801,0
1667247698.141,-1000.000,-1000.000,-555.664,-1000.000,0
1667247698.145,389.648,-114.258,-396.484,-46.875,0
1667247698.149,-821.777,-913.086,-430.176,-837.891,0
1667247698.152,-114.746,-47.363,-578.613,138.184,0
1667247698.156,-1000.000,-1000.000,-556.152,-1000.000,0
1667247698.160,-168.945,-428.223,-437.012,-316.895,0
1667247698.164,-803.711,-941.406,-458.984,-841.797,0
1667247698.168,222.168,273.926,-556.641,267.578,0
1667247698.170,-1000.000,-1000.000,-587.402,-1000.000,0
1667247698.174,-273.438,-771.484,-529.297,-710.938,0
1667247698.178,-807.129,720.703,-504.883,905.273,0
1667247698.182,381.836,602.051,-531.738,647.461,0
1667247698.186,-1000.000,-878.418,-548.340,-889.648,0
1667247698.190,-549.805,-1000.000,-492.188,-1000.000,0
1667247698.194,949.219,202.637,-439.453,139.160,0
1667247698.197,871.094,924.805,-443.359,-890.137,0
1667247698.201,-640.625,-413.574,-533.203,-264.648,0
1667247698.205,-1000.000,-1000.000,-560.547,-1000.000,0
1667247698.209,221.191,-179.199,-506.348,-203.125,0
1667247698.213,-793.945,-890.625,-455.078,-829.590,0
1667247698.216,1.953,37.598,-506.836,231.934,0
1667247698.220,-1000.000,-1000.000,-595.215,-1000.000,0
1667247698.224,-232.422,-493.652,-540.527,-395.020,0
1667247698.228,-812.988,-985.352,-485.840,-862.305,0
1667247698.232,231.445,322.754,-427.246,398.438,0
1667247698.236,-1000.000,-1000.000,-472.656,-1000.000,0
1667247698.240,-325.684,-863.281,-534.180,-912.598,0
1667247698.243,-837.891,590.332,-451.660,682.129,0
1667247698.247,492.676,676.758,-409.180,752.441,0
1667247698.251,-1000.000,-787.598,-567.871,-805.664,0
1667247698.255,-760.742,-1000.000,-592.285,-1000.000,0
1667247698.259,807.129,100.098,-470.703,21.973,0
1667247698.260,-984.863,-988.770,-480.469,-840.820,0
1667247698.264,-433.594,-254.883,-599.121,-86.914,0
1667247698.268,-1000.000,-1000.000,-563.965,-1000.000,0
1667247698.272,113.770,-235.840,-479.492,-207.031,0
1667247698.276,-837.402,-941.406,-476.074,-881.348,0
1667247698.280,28.320,19.531,-491.211,145.996,0
1667247698.284,-1000.000,-1000.000,-537.598,-1000.000,0
1667247698.287,-256.348,-615.723,-415.527,-412.598,0
1667247698.291,-815.430,893.555,-293.457,-869.629,0
1667247698.295,235.840,417.969,-476.074,362.793,0
1667247698.299,-1000.000,-1000.000,-583.984,-1000.000,0
1667247698.303,-427.734,-946.777,-513.672,-1000.000,0
1667247698.304,-887.207,463.379,-501.953,467.773,0
1667247698.308,598.145,785.156,-541.992,919.434,0
1667247698.312,-1000.000,-646.484,-574.219,-614.258,0
1667247698.316,-889.160,-1000.000,-548.340,-1000.000,0
1667247698.320,631.836,3.418,-487.793,-64.941,71
1667247698.324,-881.836,-943.848,-453.125,-825.684,0
1667247698.328,-256.348,-156.738,-490.723,63.477,0
1667247698.331,-1000.000,-1000.000,-504.395,-1000.000,0
1667247698.335,-27.832,-330.566,-515.625,-270.996,0
1667247698.339,-784.668,-898.926,-490.234,-832.031,0
1667247698.343,192.871,178.223,-502.441,242.676,0
1667247698.347,-1000.000,-1000.000,-554.199,-1000.000,0
1667247698.349,-267.090,-683.594,-539.551,-609.863,0
1667247698.353,-810.547,824.707,-482.422,-996.094,0
1667247698.357,291.016,499.512,-500.488,592.285,0
1667247698.361,-1000.000,-989.258,-575.684,-963.379,0
1667247698.365,-521.973,-1000.000,-563.477,-1000.000,0
1667247698.369,-954.102,357.910,-460.938,383.301,0
1667247698.373,738.770,842.285,-432.617,-970.215,0
1667247698.376,-835.449,-547.852,-510.254,-429.199,0
1667247698.380,-1000.000,-1000.000,-520.996,-1000.000,0
1667247698.384,440.430,-88.867,-506.836,-167.969,0
1667247698.388,-829.590,-928.711,-340.332,-828.613,0
1667247698.392,-137.695,-89.844,-370.605,187.988,0
1667247698.393,-1000.000,-1000.000,-592.285,-1000.000,0
1667247698.397,-143.555,-409.180,-492.676,-323.242,0
1667247698.401,-799.805,-932.129,-452.148,-833.008,0
1667247698.405,219.238,257.812,-545.410,251.465,0
1667247698.409,-1000.000,-1000.000,-588.379,-1000.000,0
1667247698.413,-271.973,-766.602,-486.328,-565.430,0
1667247698.417,-813.965,721.680,-360.840,976.562,0
1667247698.420,396.484,597.168,-459.473,634.277,0
1667247698.424,-1000.000,-884.277,-605.469,-906.738,0
1667247698.428,-626.465,-1000.000,-507.324,-1000.000,0
1667247698.432,972.656,217.285,-419.922,259.766,0
1667247698.436,853.516,918.945,-491.211,-913.574,0
1667247698.440,-671.387,-427.246,-565.430,-312.500,0
1667247698.444,-1000.000,-1000.000,-535.156,-1000.000,0
1667247698.448,246.094,-169.922,-470.215,-199.219,0
1667247698.452,-796.875,-894.531,-496.094,-829.102,0
1667247698.456,-15.625,23.926,-542.480,210.449,0
1667247698.460,-1000.000,-1000.000,-513.672,-1000.000,0
1667247698.464,-225.098,-487.305,-468.750,-322.754,0
1667247698.467,-811.523,-980.469,-480.469,-834.473,0
1667247698.471,230.469,330.566,-545.410,293.945,0
1667247698.475,-1000.000,-1000.000,-519.043,-1000.000,0
1667247698.479,-315.430,-858.398,-452.148,-859.863,0
1667247698.483,-833.984,605.957,-479.004,723.633,0
1667247698.500,482.910,662.109,-458.008,745.605,0
1667247698.504,-1000.000,-807.129,-528.320,-808.594,0
1667247698.508,-748.535,-1000.000,-563.965,-1000.000,0
1667247698.512,831.055,116.699,-491.699,6.348,0
1667247698.516,986.816,988.281,-451.172,-819.824,0
1667247698.520,-485.352,-300.293,-492.188,8.789,0
1667247698.524,-1000.000,-1000.000,-544.434,-1000.000,0
1667247698.527,120.605,-232.422,-531.738,-235.352,0
1667247698.531,-781.738,-888.672,-460.449,-821.777,0
1667247698.535,98.633,85.449,-464.355,239.258,0
1667247698.539,-1000.000,-1000.000,-587.402,-1000.000,0
1667247698.543,-253.906,-574.707,-535.645,-499.512,0
1667247698.545,-813.477,939.453,-456.055,-907.715,0
1667247698.549,235.840,393.555,-477.539,365.234,0
1667247698.553,-1000.000,-1000.000,-541.016,-1000.000,0
1667247698.557,-421.875,-946.289,-536.133,-1000.000,0
1667247698.561,-882.812,481.445,-451.172,498.535,0
1667247698.565,583.008,720.215,-450.684,877.441,0
1667247698.569,-1000.000,-739.746,-528.809,-686.035,0
1667247698.572,-873.535,-1000.000,-540.527,-1000.000,0
1667247698.576,649.902,16.602,-420.898,-16.602,0
1667247698.580,-886.719,-941.406,-361.816,-824.707,0
1667247698.584,-269.043,-149.414,-558.105,11.719,0
1667247698.588,-1000.000,-1000.000,-587.891,-1000.000,0
1667247698.590,-3.418,-317.871,-490.234,-250.000,0
1667247698.594,-781.738,-896.973,-501.953,-828.125,0
1667247698.598,184.570,166.504,-562.500,242.188,0
1667247698.602,-1000.000,-1000.000,-571.777,-1000.000,0
1667247698.606,-266.113,-650.391,-479.980,-544.922,0
1667247698.610,-810.547,871.582,-414.062,-938.477,0
1667247698.614,280.762,488.281,-513.184,501.465,0
1667247698.617,-1000.000,-998.535,-582.031,-1000.000,0
1667247698.621,-504.395,-997.070,-497.559,-1000.000,0
1667247698.625,-940.918,380.859,-499.023,383.789,0
1667247698.629,714.355,850.098,-535.645,-981.934,0
1667247698.633,-866.699,-544.434,-538.574,-450.684,0
1667247698.636,-1000.000,-1000.000,-494.141,-1000.000,0
1667247698.640,469.238,-74.707,-500.488,-146.973,0
1667247698.644,-835.449,-919.434,-479.004,-830.566,0
1667247698.648,-155.273,-82.520,-541.504,124.023,0
1667247698.652,-1000.000,-1000.000,-572.266,-1000.000,0
1667247698.656,-133.789,-408.691,-456.543,-280.762,0
1667247698.660,-798.828,-935.059,-434.570,-829.102,0
1667247698.663,217.773,239.258,-457.031,302.246,0
1667247698.667,-1000.000,-1000.000,-491.699,-1000.000,0
1667247698.671,-271.973,-738.770,-554.199,-673.828,0
1667247698.675,-812.988,756.348,-489.258,957.031,0
1667247698.679,386.719,583.984,-492.676,619.629,0
1667247698.680,-1000.000,-901.367,-601.562,-905.273,0
1667247698.684,-615.234,-1000.000,-582.031,-1000.000,0
1667247698.688,981.934,250.000,-455.078,176.758,0
1667247698.692,839.844,905.273,-425.781,-932.617,0
1667247698.696,-688.477,-448.730,-541.016,-350.098,0
1667247698.700,-1000.000,-1000.000,-523.438,-1000.000,0
1667247698.704,282.715,-170.898,-428.223,-173.340,0
1667247698.707,-856.934,-898.926,-377.441,-888.184,0
1667247698.711,-130.371,15.137,-479.980,110.352,0
1667247698.715,-1000.000,-1000.000,-565.430,-1000.000,0
1667247698.719,-212.891,-470.215,-491.699,-344.727,0
1667247698.723,-812.988,-968.262,-457.520,-847.168,0
1667247698.740,228.516,319.824,-544.434,299.805,0
1667247698.744,-1000.000,-1000.000,-575.684,-1000.000,0
1667247698.748,-305.176,-848.145,-520.996,-793.945,0
1667247698.752,-829.590,636.719,-475.098,813.477,0
1667247698.756,464.355,624.023,-475.098,687.012,0
1667247698.760,-1000.000,-859.375,-537.109,-895.508,0
1667247698.764,-736.816,-1000.000,-451.172,-1000.000,0
1667247698.767,844.727,112.793,-293.457,173.340,0
1667247698.771,973.145,980.957,-435.547,-851.074,0
1667247698.775,-507.812,-310.547,-568.848,-172.852,0
1667247698.779,-1000.000,-1000.000,-534.180,-1000.000,0
1667247698.783,138.184,-222.656,-491.699,-216.309,0
1667247698.770,-782.227,-878.418,-514.648,-830.566,0
1667247698.774,79.102,95.703,-558.105,231.445,0
1667247698.778,-1000.000,-1000.000,-566.406,-1000.000,0
1667247698.782,-251.465,-556.641,-529.785,-465.332,0
1667247698.786,-813.965,960.449,-476.074,-893.066,0
1667247698.790,235.352,374.512,-472.168,374.023,0
1667247698.794,-1000.000,-1000.000,-543.945,-1000.000,0
1667247698.797,-398.438,-924.316,-534.180,-979.492,0
1667247698.801,-871.582,503.418,-492.676,495.117,0
1667247698.805,559.082,727.051,-453.125,964.844,0
1667247698.809,-1000.000,-727.539,-496.582,-548.340,0
1667247698.813,-852.051,-1000.000,-582.520,-1000.000,0
1667247698.815,679.199,45.410,-504.395,-14.648,0
1667247698.819,-902.344,-954.102,-472.168,-821.777,0
1667247698.823,-304.688,-183.105,-555.176,0.488,0
1667247698.827,-1000.000,-1000.000,-603.027,-1000.000,0
1667247698.831,21.484,-301.270,-525.879,-241.699,0
1667247698.835,-780.273,-893.555,-423.828,-827.637,0
1667247698.839,174.316,142.578,-460.938,240.234,0
1667247698.842,-1000.000,-1000.000,-528.320,-1000.000,0
1667247698.846,-264.648,-661.621,-476.562,-596.191,0
1667247698.850,-811.035,846.680,-419.922,-975.586,0
1667247698.854,269.043,474.121,-479.980,485.352,0
1667247698.858,-1000.000,-1000.000,-581.543,-1000.000,0
1667247698.876,-496.582,-995.605,-560.059,-1000.000,0
1667247698.880,-936.523,380.371,-356.934,433.594,0
1667247698.884,703.613,843.262,-367.188,-984.863,0
1667247698.888,-878.906,-555.664,-581.055,-469.727,0
1667247698.892,-1000.000,-1000.000,-522.461,-1000.000,0
1667247698.896,479.004,-75.195,-441.406,-62.012,0
1667247698.900,-837.891,-919.434,-470.703,-820.312,0
1667247698.903,-164.551,-81.543,-579.102,82.031,0
1667247698.907,-1000.000,-1000.000,-559.570,-1000.000,0
1667247698.911,-125.488,-404.297,-447.754,-318.359,0
1667247698.915,-797.363,-932.617,-482.910,-848.633,0
1667247698.919,217.285,236.816,-548.828,248.535,0
1667247698.920,-1000.000,-1000.000,-570.312,-1000.000,0
1667247698.924,-275.391,-737.305,-516.602,-652.344,0
1667247698.928,-798.340,762.207,-497.070,958.496,0
1667247698.932,336.426,568.848,-540.527,638.184,0
1667247698.936,-1000.000,-896.484,-562.500,-929.199,0
1667247698.940,-420.898,-1000.000,-511.719,-1000.000,0
1667247698.944,969.727,256.836,-465.820,351.074,0
1667247698.947,833.984,902.832,-467.773,-901.855,0
1667247698.951,-690.430,-453.125,-469.238,-266.602,0
1667247698.955,-1000.000,-1000.000,-460.449,-1000.000,0
1667247698.959,280.762,-157.227,-497.070,-208.984,0
1667247698.963,-802.246,-897.461,-477.539,-830.566,0
1667247698.965,-51.758,6.836,-522.949,220.703,0
1667247698.969,-1000.000,-1000.000,-588.379,-1000.000,0
1667247698.973,-209.961,-465.820,-536.621,-362.305,0
1667247698.977,-810.547,-964.844,-489.746,-849.121,0
1667247698.981,228.027,316.895,-500.977,340.820,0
1667247698.985,-1000.000,-1000.000,-532.715,-1000.000,0
1667247698.989,-295.898,-831.543,-527.344,-831.543,0
1667247698.992,-826.660,642.090,-447.754,780.273,0
1667247698.996,464.844,645.996,-421.387,699.707,0
1667247699.000,-1000.000,-822.754,-569.824,-844.238,0
1667247699.004,-731.934,-1000.000,-580.078,-1000.000,0
1667247699.008,853.516,129.883,-452.148,22.461,0
1667247699.010,966.309,976.074,-443.848,-868.164,0
1667247699.014,-516.113,-321.777,-575.195,-173.828,0
