timestamps,TP9,AF7,AF8,TP10,marker
1667247895.928,5.859,-120.605,-68.359,-247.070,0
1667247895.932,1.953,-102.051,-57.129,-256.836,0
1667247895.936,-65.918,-87.402,-64.453,-281.250,0
1667247895.940,-93.750,-91.309,-67.383,-260.742,0
1667247895.944,-17.090,-95.703,-58.105,-236.328,0
1667247895.948,-2.930,-108.887,-61.523,-265.137,0
1667247895.952,-88.379,-110.840,-65.918,-297.363,0
1667247895.955,-120.605,-106.445,-59.570,-296.387,0
1667247895.959,-64.941,-114.746,-48.340,-216.309,0
1667247895.963,-13.672,-114.746,-48.828,-196.777,0
1667247895.967,-48.340,-103.516,-56.641,-275.879,0
1667247895.971,-110.352,-102.051,-64.941,-275.879,0
1667247895.980,-58.105,-99.609,-69.336,-247.070,0
1667247895.984,26.367,-89.844,-67.871,-212.402,0
1667247895.988,-29.297,-95.215,-68.848,-214.355,0
1667247895.992,-130.859,-99.609,-61.523,-292.480,0
1667247895.996,-101.562,-108.887,-49.316,-278.320,0
1667247896.000,-6.836,-122.559,-48.828,-245.605,0
1667247896.004,-5.859,-118.164,-51.270,-265.137,0
1667247896.007,-75.195,-101.074,-39.551,-238.770,0
1667247896.011,-85.938,-98.633,-33.203,-225.586,0
1667247896.015,5.859,-104.004,-40.039,-267.578,0
1667247896.019,28.320,-107.910,-48.828,-303.711,0
1667247896.023,-63.477,-102.539,-53.711,-338.379,0
1667247896.017,-106.445,-81.055,-48.828,-346.191,0
1667247896.021,-37.109,-76.660,-41.504,-300.293,0
1667247896.025,31.738,-81.055,-43.457,-271.973,0
1667247896.029,-31.250,-86.914,-38.574,-265.137,0
1667247896.033,-83.984,-91.797,-33.203,-268.555,0
1667247896.037,-50.781,-86.426,-46.875,-275.879,0
1667247896.041,32.227,-76.172,-53.223,-260.254,0
1667247896.044,36.621,-60.059,-41.504,-242.188,0
1667247896.048,-62.500,-48.828,-46.387,-285.156,0
1667247896.052,-78.125,-48.340,-58.105,-285.645,0
1667247896.056,-40.039,-62.012,-65.430,-270.020,0
1667247896.060,-4.395,-64.453,-81.055,-314.941,0
1667247896.062,-78.125,-58.594,-94.238,-350.586,0
1667247896.066,-129.883,-59.570,-99.609,-355.957,0
1667247896.070,-39.551,-60.059,-115.234,-355.469,0
1667247896.074,5.859,-56.641,-125.000,-348.145,0
1667247896.078,-84.961,-51.270,-123.047,-345.703,0
1667247896.082,-126.465,-45.410,-133.301,-355.469,0
1667247896.086,-30.273,-36.133,-129.395,-308.594,0
1667247896.089,28.320,-23.438,-117.676,-254.395,0
1667247896.093,-11.719,-19.043,-125.977,-315.430,0
1667247896.097,-77.148,-13.184,-128.906,-354.492,0
1667247896.101,-43.945,-0.488,-126.953,-358.887,0
1667247896.105,33.691,-3.418,-132.812,-360.840,0
1667247896.108,6.348,-3.418,-136.230,-357.910,0
1667247896.112,-56.152,2.930,-129.395,-366.699,0
1667247896.116,-41.016,1.953,-120.605,-366.699,0
1667247896.120,44.434,4.395,-124.512,-338.379,0
1667247896.124,54.688,2.441,-137.207,-335.449,0
1667247896.128,-23.438,-0.488,-133.789,-359.863,0
1667247896.132,-71.289,-6.348,-132.812,-357.910,0
1667247896.135,-41.504,-8.789,-134.277,-327.148,0
1667247896.139,28.809,4.395,-121.582,-291.016,0
1667247896.143,-9.277,17.090,-99.609,-291.504,0
1667247896.147,-77.148,20.020,-93.262,-319.824,0
1667247896.151,-17.578,26.855,-99.121,-291.504,0
1667247896.152,25.879,31.738,-102.051,-264.648,0
1667247896.156,-33.203,28.809,-106.934,-278.809,0
1667247896.160,-100.586,42.480,-110.352,-267.090,0
1667247896.164,-44.922,55.664,-96.680,-263.672,0
1667247896.168,39.062,65.430,-88.379,-251.953,0
1667247896.172,9.766,67.871,-93.750,-245.117,0
1667247896.176,-60.059,65.430,-89.844,-262.695,0
1667247896.179,-77.148,68.359,-89.355,-257.812,0
1667247896.183,11.719,77.148,-89.355,-232.422,0
1667247896.187,34.668,78.613,-91.797,-228.516,0
1667247896.191,-72.754,64.453,-101.562,-246.582,0
1667247896.195,-73.730,62.500,-110.840,-282.715,0
1667247896.198,-7.324,63.477,-100.586,-304.688,0
1667247896.202,5.371,72.754,-78.613,-269.043,0
1667247896.206,-36.621,87.402,-75.684,-257.812,0
1667247896.210,-84.961,91.309,-68.848,-269.043,0
1667247896.214,-30.762,90.332,-58.105,-238.281,0
1667247896.218,63.477,81.543,-72.754,-208.008,0
1667247896.222,60.059,81.543,-98.145,-231.934,0
1667247896.225,-9.766,80.078,-94.238,-271.973,0
1667247896.229,-26.367,67.383,-87.891,-255.859,0
1667247896.233,67.383,68.359,-90.820,-199.219,0
1667247896.237,85.938,72.754,-102.539,-233.398,0
1667247896.241,10.742,62.988,-120.605,-273.926,0
1667247896.257,-25.391,43.945,-118.164,-250.977,0
1667247896.261,56.641,40.039,-112.793,-232.422,0
1667247896.265,119.141,55.664,-112.793,-229.492,0
1667247896.269,28.320,57.617,-123.047,-238.281,0
1667247896.273,-37.598,61.035,-131.348,-262.207,0
1667247896.277,-24.414,69.336,-135.742,-265.625,0
1667247896.281,23.926,66.895,-134.766,-230.957,0
1667247896.284,5.859,94.727,-125.000,-226.074,0
1667247896.288,-72.266,122.559,-122.559,-259.766,0
1667247896.292,-51.758,120.605,-133.301,-244.629,0
1667247896.296,39.062,122.070,-136.230,-229.004,0
1667247896.300,-4.883,122.559,-129.395,-255.371,0
1667247896.302,-115.234,115.723,-131.348,-257.812,0
1667247896.306,-118.652,111.816,-138.184,-253.906,0
1667247896.310,-66.895,106.445,-148.438,-222.168,0
1667247896.314,-145.508,95.215,-155.762,-226.074,0
1667247896.318,-312.012,86.426,-155.762,-278.320,0
1667247896.322,-394.043,85.938,-152.832,-281.250,0
1667247896.326,-382.324,79.590,-149.414,-259.766,0
1667247896.329,-440.430,58.594,-150.391,-222.168,0
1667247896.333,-641.113,47.363,-146.973,-211.914,0
1667247896.337,-804.688,45.898,-163.086,-257.324,0
1667247896.341,-835.938,41.992,-171.875,-269.531,0
1667247896.345,-836.914,47.363,-159.180,-231.934,0
1667247896.347,-906.738,50.293,-156.738,-222.168,0
1667247896.351,-1000.000,36.133,-156.738,-239.258,0
1667247896.355,-977.539,31.738,-148.438,-197.266,0
1667247896.359,-871.582,20.996,-140.625,-167.969,0
1667247896.363,-905.762,2.930,-146.484,-206.543,0
1667247896.367,-986.328,1.953,-160.156,-240.723,0
1667247896.371,-947.754,5.371,-155.273,-224.121,0
1667247896.374,-858.887,-7.324,-136.719,-211.914,0
1667247896.378,-800.293,-24.414,-131.836,-211.426,0
1667247896.382,-828.613,-28.809,-134.277,-220.703,0
1667247896.386,-829.590,-31.250,-129.883,-247.070,0
1667247896.390,-752.441,-17.578,-128.418,-244.141,0
1667247896.392,-693.848,-13.672,-134.766,-216.797,0
1667247896.396,-727.051,-26.855,-131.836,-236.328,0
1667247896.400,-762.207,-36.133,-128.906,-234.375,0
1667247896.404,-656.250,-41.504,-126.953,-219.238,0
1667247896.408,-523.438,-40.039,-127.930,-231.934,0
1667247896.412,-530.273,-38.574,-125.977,-225.098,0
1667247896.416,-594.238,-29.297,-124.512,-248.047,0
1667247896.419,-556.152,-25.879,-116.211,-238.770,0
1667247896.423,-455.566,-36.133,-113.770,-203.125,0
1667247896.427,-446.289,-38.574,-122.559,-217.285,0
1667247896.431,-504.395,-38.086,-131.836,-223.145,0
1667247896.435,-502.930,-36.133,-132.324,-207.520,0
1667247896.438,-432.617,-30.273,-131.836,-200.684,0
1667247896.442,-420.410,-30.273,-145.020,-212.891,0
1667247896.446,-553.223,-36.621,-146.484,-254.883,0
1667247896.450,-588.379,-41.016,-133.301,-261.719,0
1667247896.454,-514.648,-22.949,-126.953,-202.637,0
1667247896.458,-509.277,-13.672,-130.371,-225.586,0
1667247896.462,-575.684,-5.859,-125.488,-240.723,0
1667247896.465,-694.336,-4.395,-110.840,-214.844,0
1667247896.469,-710.449,-6.348,-111.816,-245.605,0
1667247896.473,-630.859,12.695,-118.164,-230.957,0
1667247896.477,-627.441,22.461,-108.887,-182.617,0
1667247896.481,-674.316,22.949,-111.816,-198.730,0
1667247896.482,-612.793,20.996,-127.441,-260.254,0
1667247896.486,-534.180,8.789,-135.742,-273.438,0
1667247896.490,-510.742,16.602,-144.043,-246.094,0
1667247896.494,-572.754,20.508,-144.043,-249.023,0
1667247896.498,-627.930,19.043,-149.902,-252.930,0
1667247896.502,-552.246,14.160,-150.879,-223.633,0
1667247896.506,-480.957,13.184,-134.766,-226.074,0
1667247896.509,-515.137,33.691,-129.883,-246.094,0
1667247896.513,-587.891,44.922,-136.719,-271.973,0
1667247896.517,-517.090,49.805,-144.043,-263.672,0
1667247896.521,-435.059,45.410,-155.762,-285.645,0
1667247896.525,-564.941,17.578,-161.133,-296.875,0
1667247896.527,-701.660,4.883,-167.480,-284.180,0
1667247896.531,-686.035,10.742,-166.016,-254.883,0
1667247896.535,-647.949,14.160,-153.320,-212.402,0
1667247896.539,-660.645,8.789,-159.180,-236.328,0
1667247896.543,-791.504,1.465,-172.363,-267.578,0
1667247896.547,-886.719,0.977,-160.645,-270.508,0
1667247896.551,-809.082,-1.953,-151.855,-238.770,0
1667247896.554,-767.578,0.488,-164.551,-247.070,0
1667247896.558,-895.996,11.230,-169.922,-299.805,0
1667247896.562,-964.844,22.949,-180.664,-316.406,0
1667247896.566,-852.051,20.508,-187.988,-264.648,0
1667247896.570,-780.762,1.465,-159.668,-226.074,0
1667247896.573,-855.469,-6.348,-153.809,-292.969,0
1667247896.577,-929.688,-22.461,-148.926,-324.219,0
1667247896.581,-827.148,-37.109,-139.160,-270.996,0
1667247896.585,-679.199,-40.527,-131.348,-231.934,0
1667247896.589,-685.059,-47.363,-125.488,-282.227,0
1667247896.593,-756.836,-68.848,-115.723,-263.672,0
1667247896.597,-716.797,-107.910,-107.910,-261.230,0
1667247896.600,-580.566,-129.883,-108.887,-261.230,0
1667247896.604,-512.207,-124.512,-105.957,-212.402,0
1667247896.608,-559.082,-116.211,-97.168,-230.469,0
1667247896.612,-534.668,-125.000,-84.961,-231.445,0
1667247896.616,-366.211,-118.164,-82.520,-196.289,0
1667247896.632,-285.645,-104.980,-86.914,-200.195,0
1667247896.636,-295.410,-109.375,-73.730,-216.309,0
1667247896.640,-354.492,-116.211,-71.289,-204.102,0
1667247896.644,-319.824,-104.004,-83.496,-190.918,0
1667247896.648,-186.035,-103.516,-85.938,-208.008,0
1667247896.652,-175.781,-106.934,-93.750,-232.910,0
1667247896.656,-213.867,-83.008,-89.844,-232.910,0
1667247896.659,-137.207,-70.801,-78.125,-192.871,0
1667247896.663,-37.598,-71.777,-73.730,-145.020,0
1667247896.667,-37.109,-60.547,-84.961,-178.711,0
1667247896.671,-109.375,-42.480,-99.121,-188.965,0
1667247896.675,-101.562,-40.039,-95.703,-177.734,0
1667247896.677,25.391,-37.598,-86.914,-164.062,0
1667247896.681,30.273,-32.715,-96.680,-182.129,0
1667247896.685,-69.824,-35.156,-106.445,-223.145,0
1667247896.689,-83.496,-32.227,-113.281,-209.961,0
1667247896.693,-22.461,-42.480,-122.070,-170.410,0
1667247896.697,9.277,-51.270,-114.746,-154.297,0
1667247896.701,-112.793,-63.477,-108.887,-202.637,0
1667247896.704,-191.406,-61.523,-126.953,-235.352,0
1667247896.708,-106.445,-55.176,-138.184,-205.566,0
1667247896.712,-38.574,-62.988,-142.090,-185.059,0
1667247896.716,-78.613,-59.570,-141.602,-227.539,0
1667247896.720,-134.277,-52.734,-119.141,-214.355,0
1667247896.723,-101.562,-55.664,-121.094,-181.641,0
1667247896.727,2.441,-60.059,-128.418,-178.711,0
1667247896.731,-17.578,-55.176,-124.512,-172.852,0
1667247896.735,-155.273,-59.570,-128.906,-214.844,0
1667247896.739,-145.508,-58.105,-116.211,-215.332,0
1667247896.743,-42.969,-51.758,-95.215,-170.410,0
1667247896.747,-32.715,-42.969,-89.355,-165.527,0
1667247896.750,-101.074,-44.434,-102.051,-211.914,0
1667247896.754,-130.371,-49.316,-117.188,-196.289,0
1667247896.758,-67.871,-56.152,-130.859,-204.590,0
1667247896.762,-18.066,-66.895,-130.371,-212.891,0
1667247896.766,-128.418,-78.613,-114.258,-177.246,0
1667247896.768,-185.059,-83.008,-120.605,-185.059,0
1667247896.772,-108.398,-70.801,-140.137,-222.168,0
1667247896.776,-87.891,-77.637,-136.230,-214.844,0
1667247896.780,-110.352,-74.707,-119.629,-183.594,0
1667247896.784,-164.551,-63.477,-121.094,-164.551,0
1667247896.788,-169.922,-72.754,-121.094,-175.781,0
1667247896.792,-115.723,-89.355,-115.723,-164.062,0
1667247896.795,-173.340,-95.215,-108.887,-140.625,0
1667247896.799,-298.340,-87.891,-102.539,-149.902,0
1667247896.803,-345.215,-91.309,-107.422,-169.434,0
1667247896.807,-353.027,-92.773,-112.305,-166.992,0
1667247896.811,-389.160,-96.680,-106.934,-144.043,0
1667247896.827,-478.027,-99.121,-115.723,-175.781,0
1667247896.831,-509.766,-102.539,-116.699,-165.039,0
1667247896.835,-433.594,-110.840,-108.887,-119.141,0
1667247896.839,-363.770,-110.840,-117.676,-149.902,0
1667247896.843,-392.090,-91.797,-127.930,-171.387,0
1667247896.847,-446.289,-91.309,-120.117,-164.062,0
1667247896.851,-417.480,-103.516,-118.164,-155.762,0
1667247896.854,-358.887,-112.305,-113.281,-152.344,0
1667247896.858,-416.016,-114.258,-109.375,-195.801,0
1667247896.862,-488.770,-102.051,-108.887,-161.133,0
1667247896.866,-418.945,-100.586,-106.445,-144.043,0
1667247896.870,-291.992,-113.281,-111.328,-146.484,0
1667247896.858,-279.297,-115.234,-125.488,-165.039,0
1667247896.862,-354.980,-119.141,-114.258,-187.500,0
1667247896.866,-372.070,-129.395,-100.586,-159.180,0
1667247896.870,-271.973,-122.070,-98.633,-130.371,0
1667247896.874,-207.520,-116.211,-94.727,-129.395,0
1667247896.878,-268.555,-127.441,-94.238,-137.695,0
1667247896.882,-285.645,-115.723,-112.793,-124.023,0
1667247896.885,-187.988,-104.492,-135.254,-162.598,0
1667247896.889,-132.324,-122.559,-145.020,-183.594,0
1667247896.893,-158.691,-129.395,-146.484,-186.035,0
1667247896.897,-187.500,-133.789,-128.906,-187.500,0
1667247896.901,-137.207,-145.996,-129.883,-197.754,0
1667247896.903,2.930,-141.602,-135.254,-176.270,0
1667247896.907,70.312,-131.836,-137.207,-212.402,0
1667247896.911,-3.418,-144.043,-145.020,-250.000,0
1667247896.915,65.918,-138.672,-140.137,-200.684,0
1667247896.919,198.242,-126.465,-133.789,-186.523,0
1667247896.923,218.262,-130.371,-116.211,-155.273,0
1667247896.927,184.570,-120.117,-123.535,-180.176,0
1667247896.930,158.203,-121.582,-128.906,-224.609,0
1667247896.934,237.793,-133.789,-128.906,-219.727,0
1667247896.938,287.598,-137.207,-143.555,-214.844,0
1667247896.942,218.750,-133.789,-124.512,-207.031,0
1667247896.946,212.891,-132.324,-110.352,-184.570,0
1667247896.948,288.574,-123.535,-108.398,-170.898,0
1667247896.952,361.328,-122.559,-94.727,-165.527,0
1667247896.956,354.492,-116.699,-104.492,-205.078,0
1667247896.960,268.555,-107.422,-121.094,-221.680,0
1667247896.964,261.719,-120.117,-112.305,-195.312,0
1667247896.968,302.246,-143.555,-97.656,-214.844,0
1667247896.972,290.039,-138.672,-101.562,-229.004,0
1667247896.975,232.910,-119.629,-108.887,-253.906,0
1667247896.979,244.629,-125.977,-96.680,-252.930,0
1667247896.983,350.098,-129.395,-95.703,-172.363,0
1667247896.987,328.125,-127.441,-100.098,-173.828,0
1667247896.991,220.703,-116.699,-102.051,-247.559,0
1667247897.008,235.840,-104.004,-109.375,-255.859,0
1667247897.012,320.312,-109.863,-97.656,-212.891,0
1667247897.016,312.988,-128.418,-83.496,-222.656,0
1667247897.020,238.770,-132.812,-81.543,-225.098,0
1667247897.024,208.496,-126.953,-81.543,-187.500,0
1667247897.028,240.234,-129.883,-100.098,-229.004,0
1667247897.032,291.016,-133.301,-110.840,-248.047,0
1667247897.035,247.070,-137.695,-107.422,-236.816,0
1667247897.039,188.965,-139.160,-125.000,-270.020,0
1667247897.043,191.406,-140.625,-126.953,-260.742,0
1667247897.047,246.582,-151.855,-112.793,-204.102,0
1667247897.051,244.141,-149.902,-116.211,-252.441,0
1667247897.054,152.832,-149.902,-123.535,-304.688,0
1667247897.058,157.227,-157.227,-127.930,-249.512,0
1667247897.062,233.398,-151.855,-120.117,-226.562,0
1667247897.066,214.844,-154.297,-116.699,-252.930,0
1667247897.070,95.215,-155.762,-126.953,-277.344,0
1667247897.074,43.945,-148.438,-129.395,-254.883,0
1667247897.078,99.609,-149.414,-121.094,-214.844,0
1667247897.081,99.609,-150.391,-115.723,-202.148,0
1667247897.085,-8.789,-141.602,-126.953,-270.508,0
1667247897.089,-129.395,-145.020,-134.277,-291.504,0
1667247897.093,-188.477,-156.738,-129.883,-243.164,0
1667247897.097,-228.516,-159.180,-127.441,-243.652,0
1667247897.097,-417.480,-161.133,-126.953,-264.160,0
1667247897.101,-675.781,-169.434,-119.141,-262.695,0
1667247897.105,-839.355,-160.645,-125.000,-277.832,0
1667247897.109,-951.660,-147.461,-132.812,-231.445,0
1667247897.113,-1000.000,-148.926,-133.789,-248.047,0
1667247897.117,-998.535,-156.250,-135.742,-288.086,0
1667247897.121,-1000.000,-159.668,-145.020,-277.344,0
1667247897.124,-1000.000,-154.785,-151.367,-296.875,0
1667247897.128,-1000.000,-160.156,-145.508,-267.090,0
1667247897.132,-1000.000,-169.434,-145.996,-259.766,0
1667247897.136,-1000.000,-160.645,-145.508,-264.648,0
1667247897.140,-1000.000,-163.574,-134.766,-240.723,0
1667247897.142,-1000.000,-164.062,-145.996,-287.598,0
1667247897.146,-996.094,-159.180,-151.855,-303.223,0
1667247897.150,-1000.000,-157.715,-132.812,-275.879,0
1667247897.154,-966.309,-152.832,-125.000,-258.789,0
1667247897.158,-819.336,-152.344,-125.488,-252.441,0
1667247897.162,-771.484,-147.461,-120.605,-254.883,0
1667247897.166,-779.297,-134.277,-113.770,-270.508,0
1667247897.169,-635.742,-132.812,-111.328,-249.023,0
1667247897.173,-528.809,-142.578,-101.562,-222.168,0
1667247897.177,-497.070,-136.230,-94.727,-227.051,0
1667247897.181,-471.680,-115.234,-95.703,-268.555,0
1667247897.185,-431.641,-105.957,-89.355,-244.629,0
1667247897.187,-351.562,-109.375,-92.285,-238.281,0
1667247897.191,-279.297,-117.188,-96.680,-248.047,0
1667247897.195,-341.309,-137.207,-88.379,-247.070,0
1667247897.199,-363.770,-138.184,-86.914,-230.469,0
1667247897.203,-281.738,-131.836,-103.027,-215.820,0
1667247897.207,-216.309,-132.812,-97.168,-231.934,0
1667247897.211,-288.086,-116.699,-76.660,-252.441,0
1667247897.214,-391.602,-120.605,-76.660,-223.145,0
1667247897.218,-423.340,-146.484,-81.543,-210.938,0
1667247897.222,-374.023,-149.902,-84.473,-250.977,0
1667247897.226,-295.410,-133.789,-72.266,-249.023,0
1667247897.230,-324.707,-125.488,-64.941,-270.020,0
1667247897.232,-295.410,-130.859,-60.059,-228.027,0
1667247897.236,-150.391,-141.602,-52.734,-198.730,0
1667247897.240,-62.012,-152.344,-67.383,-235.352,0
1667247897.244,-56.641,-161.133,-82.520,-262.207,0
1667247897.248,-125.488,-180.664,-83.008,-263.672,0
1667247897.252,-37.109,-195.801,-88.379,-247.070,0
1667247897.256,87.402,-186.523,-98.633,-252.441,0
1667247897.259,13.672,-199.707,-98.145,-244.629,0
1667247897.263,-53.711,-210.449,-99.121,-271.484,0
1667247897.267,45.898,-196.289,-96.191,-265.137,0
1667247897.271,124.512,-191.406,-94.238,-240.723,0
1667247897.275,144.043,-185.547,-96.191,-241.699,0
1667247897.295,116.211,-189.453,-77.637,-232.422,0
1667247897.299,150.391,-195.801,-70.312,-217.773,0
1667247897.303,272.949,-211.426,-67.383,-218.750,0
1667247897.307,317.871,-200.684,-68.359,-219.238,0
1667247897.311,244.141,-201.172,-73.242,-231.934,0
1667247897.315,261.719,-236.816,-58.594,-224.609,0
1667247897.319,397.949,-230.469,-49.805,-191.895,0
1667247897.322,445.801,-219.238,-61.523,-209.473,0
1667247897.326,355.957,-237.305,-63.965,-244.629,0
1667247897.330,315.430,-245.117,-64.453,-252.930,0
1667247897.334,418.945,-242.188,-64.941,-210.938,0
1667247897.338,534.180,-241.699,-61.035,-174.316,0
1667247897.324,455.566,-245.605,-59.570,-199.219,0
1667247897.328,360.352,-246.582,-54.199,-239.746,0
1667247897.332,450.684,-250.977,-55.176,-227.539,0
1667247897.336,566.895,-257.812,-54.688,-187.988,0
1667247897.340,519.043,-252.441,-47.363,-210.449,0
1667247897.344,432.129,-255.371,-48.340,-218.750,0
1667247897.348,469.727,-250.488,-70.801,-215.820,0
1667247897.351,580.566,-242.188,-84.473,-217.285,0
1667247897.355,602.051,-243.164,-76.660,-224.121,0
1667247897.359,507.324,-243.652,-75.195,-204.590,0
1667247897.363,500.488,-238.770,-68.848,-175.781,0
1667247897.367,608.887,-223.633,-62.500,-191.895,0
1667247897.383,628.906,-220.703,-67.871,-166.016,0
1667247897.387,550.781,-231.445,-75.684,-183.594,0
1667247897.391,508.789,-223.145,-86.914,-252.930,0
1667247897.395,522.461,-235.352,-85.938,-240.234,0
1667247897.399,574.219,-246.582,-83.008,-216.797,0
1667247897.403,564.453,-224.609,-88.867,-236.816,0
1667247897.407,467.285,-232.422,-96.191,-218.750,0
1667247897.410,494.629,-235.352,-102.051,-213.379,0
1667247897.414,602.051,-229.980,-98.633,-206.055,0
1667247897.418,558.105,-233.887,-82.031,-181.641,0
1667247897.422,464.844,-223.633,-83.496,-198.242,0
1667247897.426,455.078,-227.051,-75.684,-180.664,0
1667247897.443,505.859,-233.398,-55.176,-138.672,0
1667247897.447,520.508,-220.703,-62.988,-155.762,0
1667247897.451,409.180,-229.004,-54.688,-153.809,0
1667247897.455,379.883,-233.887,-55.664,-161.133,0
1667247897.459,474.609,-225.586,-67.871,-167.480,0
1667247897.463,497.559,-224.609,-59.082,-102.539,0
1667247897.467,418.945,-222.168,-62.012,-118.652,0
1667247897.470,314.453,-230.469,-68.848,-167.480,0
1667247897.474,341.797,-240.723,-74.707,-166.504,0
1667247897.478,398.438,-247.559,-88.867,-134.277,0
1667247897.482,356.934,-238.281,-93.262,-152.344,0
1667247897.486,277.344,-238.281,-80.566,-145.020,0
1667247897.473,320.801,-237.793,-79.590,-104.980,0
1667247897.477,400.879,-230.469,-87.402,-125.977,0
1667247897.481,345.215,-237.793,-89.355,-158.203,0
1667247897.485,246.094,-244.629,-91.797,-187.500,0
1667247897.489,246.094,-238.770,-91.309,-157.715,0
1667247897.493,310.547,-244.141,-88.867,-129.883,0
1667247897.497,316.895,-244.629,-86.914,-154.785,0
1667247897.500,221.680,-233.398,-88.867,-169.434,0
1667247897.504,181.641,-229.004,-94.727,-177.734,0
1667247897.508,222.168,-232.910,-91.309,-156.738,0
1667247897.512,249.023,-230.469,-77.148,-141.602,0
1667247897.516,197.754,-222.168,-73.242,-141.602,0
1667247897.518,135.254,-219.238,-70.801,-125.488,0
1667247897.522,155.273,-229.004,-73.242,-158.691,0
1667247897.526,188.965,-236.328,-77.637,-158.691,0
1667247897.530,119.629,-238.770,-83.008,-161.621,0
1667247897.534,42.480,-230.469,-79.590,-193.359,0
1667247897.538,72.754,-223.145,-71.777,-163.086,0
1667247897.542,153.809,-223.145,-70.801,-136.230,0
1667247897.545,132.812,-217.773,-75.195,-144.531,0
1667247897.549,17.578,-220.703,-86.426,-167.480,0
1667247897.553,-15.625,-231.934,-90.820,-157.227,0
1667247897.557,47.852,-234.863,-92.285,-157.715,0
1667247897.561,53.223,-231.445,-88.867,-174.316,0
1667247897.563,-27.344,-227.051,-91.309,-168.457,0
1667247897.567,-64.941,-227.051,-98.633,-161.621,0
1667247897.571,-30.273,-233.398,-93.750,-163.574,0
1667247897.575,-39.062,-241.699,-93.750,-147.461,0
1667247897.579,-141.602,-242.188,-109.375,-162.598,0
1667247897.583,-205.566,-247.559,-120.605,-207.520,0
1667247897.587,-127.930,-246.094,-112.305,-166.016,0
1667247897.590,-20.996,-235.840,-101.562,-104.004,0
1667247897.594,-76.172,-254.395,-125.000,-177.246,0
1667247897.598,-183.594,-250.000,-135.742,-216.797,0
1667247897.602,-137.207,-228.516,-110.352,-146.973,0
1667247897.606,-48.340,-248.047,-127.930,-166.504,0
1667247897.608,-58.105,-254.883,-147.461,-226.074,0
1667247897.612,-173.340,-263.184,-153.320,-262.695,0
1667247897.616,-194.336,-276.855,-162.598,-227.051,0
1667247897.620,-109.863,-295.898,-158.203,-217.773,0
1667247897.624,-51.270,-280.762,-188.965,-252.930,0
1667247897.628,-19.043,-213.867,-151.855,-167.480,0
1667247897.632,-41.504,-205.078,-113.281,-173.828,0
1667247897.635,41.016,-193.359,-112.793,-133.789,0
1667247897.639,78.613,-219.238,-160.645,-152.344,0
1667247897.643,-85.449,-312.012,-245.605,-321.777,0
1667247897.647,-146.484,-305.664,-221.191,-272.949,0
1667247897.651,-75.684,-277.832,-207.031,-243.164,0
1667247897.653,51.270,-251.953,-204.590,-203.613,0
1667247897.657,-7.812,-296.387,-224.121,-231.934,0
1667247897.661,-161.133,-320.801,-282.227,-330.566,0
1667247897.665,-86.426,-256.836,-252.441,-252.441,0
1667247897.669,48.828,-252.930,-237.305,-183.105,0
1667247897.673,28.809,-239.746,-259.277,-194.824,0
1667247897.677,-300.781,-413.574,-428.223,-397.949,0
1667247897.680,-371.582,-397.949,-451.172,-414.062,0
1667247897.684,-146.484,-183.105,-373.047,-238.281,0
1667247897.688,-112.793,-104.004,-390.625,-194.336,0
1667247897.692,-602.051,-417.480,-681.152,-541.504,0
1667247897.696,-1000.000,-889.160,-988.770,-956.543,0
1667247897.713,-990.723,-1000.000,-1000.000,-1000.000,0
1667247897.717,-994.141,-987.305,-993.164,-988.770,0
1667247897.721,-1000.000,-996.094,-1000.000,-1000.000,0
1667247897.725,-1000.000,-1000.000,-1000.000,-1000.000,0
1667247897.729,-1000.000,-896.484,-1000.000,-1000.000,0
1667247897.733,-1000.000,-575.684,-1000.000,-1000.000,0
1667247897.737,-1000.000,-607.422,-1000.000,-1000.000,0
1667247897.740,-1000.000,-974.609,-1000.000,-1000.000,0
1667247897.744,-1000.000,-1000.000,-1000.000,-1000.000,0
1667247897.748,-1000.000,-987.305,-1000.000,-1000.000,0
1667247897.752,-1000.000,-1000.000,-1000.000,-1000.000,0
1667247897.756,-1000.000,-1000.000,-1000.000,-1000.000,0
1667247897.758,-1000.000,-1000.000,-1000.000,-1000.000,0
1667247897.762,-1000.000,-1000.000,-1000.000,-1000.000,0
1667247897.766,-1000.000,-1000.000,-1000.000,-1000.000,0
1667247897.770,-1000.000,-1000.000,-1000.000,-1000.000,0
1667247897.774,-1000.000,-1000.000,-1000.000,-1000.000,0
1667247897.778,-1000.000,-1000.000,-1000.000,-1000.000,0
1667247897.782,-1000.000,-1000.000,-1000.000,-1000.000,0
1667247897.785,-1000.000,-1000.000,-1000.000,-1000.000,0
1667247897.789,-1000.000,-993.164,-1000.000,-1000.000,0
1667247897.793,-1000.000,-999.512,-1000.000,-1000.000,0
1667247897.797,-1000.000,-1000.000,-1000.000,-1000.000,0
1667247897.801,-1000.000,-747.559,-1000.000,-1000.000,0
1667247897.803,-1000.000,-380.371,-1000.000,-1000.000,0
1667247897.807,-1000.000,-625.488,-1000.000,-1000.000,0
1667247897.811,-1000.000,-559.082,-998.535,-1000.000,0
1667247897.815,-981.445,498.535,-983.887,-994.629,0
1667247897.819,-1000.000,979.980,-1000.000,-995.605,0
1667247897.823,-910.645,939.453,-714.844,-1000.000,0
1667247897.827,-274.414,962.891,-0.488,-719.727,0
1667247897.830,181.152,968.262,368.164,-391.602,0
1667247897.834,26.855,965.332,311.523,-461.914,0
1667247897.838,6.348,965.332,415.039,-385.254,0
1667247897.842,275.391,965.332,618.164,-90.332,0
1667247897.846,449.707,965.332,693.848,4.395,0
1667247897.848,607.422,965.332,882.812,198.730,0
1667247897.852,741.699,965.332,979.004,450.684,0
1667247897.856,875.000,965.332,957.520,604.980,0
1667247897.860,968.750,965.332,965.332,728.027,0
1667247897.864,961.426,965.332,965.332,805.664,0
1667247897.868,963.379,965.332,965.332,892.090,0
1667247897.872,964.844,965.332,965.332,958.496,0
1667247897.875,964.355,965.332,965.332,966.797,0
1667247897.879,964.355,965.332,965.332,962.891,0
1667247897.883,964.844,965.332,965.332,965.820,0
1667247897.887,964.355,965.332,965.332,965.332,0
1667247897.891,964.355,965.332,965.332,965.332,0
1667247897.893,964.355,965.332,965.332,965.332,0
1667247897.897,964.844,965.332,965.332,965.332,0
1667247897.901,964.355,965.332,964.844,965.332,0
1667247897.905,964.355,965.332,965.332,965.332,0
1667247897.909,964.355,965.332,965.332,965.332,0
1667247897.913,964.355,965.332,965.332,964.844,0
1667247897.917,964.355,965.332,965.332,964.844,0
1667247897.920,964.844,965.332,965.332,965.332,0
1667247897.924,964.355,965.332,965.332,965.332,0
1667247897.928,964.355,965.332,965.332,965.332,0
1667247897.932,964.355,965.332,965.332,965.332,0
1667247897.936,964.844,965.820,965.332,965.332,0
1667247897.938,964.844,963.867,964.844,965.332,0
1667247897.942,964.355,963.867,965.332,965.332,0
1667247897.946,964.355,964.355,965.332,965.332,0
1667247897.950,964.844,877.441,965.332,965.332,0
1667247897.954,964.844,733.398,965.332,965.332,0
1667247897.958,964.355,650.879,965.332,965.332,0
1667247897.962,964.355,619.629,965.332,965.332,0
1667247897.965,964.844,602.539,965.332,965.332,0
1667247897.969,964.844,593.750,965.332,965.332,0
1667247897.973,964.355,621.582,965.332,965.332,0
1667247897.977,964.355,614.258,965.332,965.332,0
1667247897.981,964.844,542.969,965.332,965.332,0
1667247897.984,964.355,546.875,964.844,965.332,0
1667247897.988,964.355,569.824,965.332,965.332,0
1667247897.992,966.309,582.031,968.262,969.238,0
1667247897.996,958.984,582.031,954.590,949.707,0
1667247898.000,968.262,640.137,973.145,979.004,0
1667247898.004,957.520,506.348,948.242,933.594,0
1667247898.008,792.480,-117.676,655.762,512.207,0
1667247898.011,710.449,-275.879,551.758,345.703,0
1667247898.015,735.352,-146.973,629.883,427.246,0
1667247898.019,780.273,-160.156,610.352,428.711,0
1667247898.023,865.234,-111.816,641.602,462.402,0
1667247898.027,864.746,-56.641,680.664,491.211,0
1667247898.028,889.160,32.715,746.582,557.617,0
1667247898.032,958.008,124.023,822.266,583.496,0
1667247898.036,966.309,145.508,810.059,569.824,0
1667247898.040,962.402,179.199,791.504,564.453,0
1667247898.044,964.844,221.680,832.031,566.895,0
1667247898.048,964.844,242.676,853.027,614.746,0
1667247898.052,964.844,290.527,879.395,689.941,0
1667247898.055,964.355,349.121,907.227,741.699,0
1667247898.059,964.844,473.145,954.102,801.758,0
1667247898.063,964.844,563.965,968.262,865.723,0
1667247898.067,964.355,627.441,962.891,946.289,0
1667247898.071,964.844,686.035,965.820,969.727,0
1667247898.073,964.844,682.617,965.332,961.914,0
1667247898.077,964.844,703.613,965.332,966.309,0
1667247898.081,964.844,680.664,965.332,965.332,0
1667247898.085,964.355,770.508,965.332,965.332,0
1667247898.089,964.844,895.508,964.844,965.332,0
1667247898.093,964.844,881.836,965.332,965.332,0
1667247898.097,964.355,901.855,965.332,965.332,0
1667247898.100,964.844,945.312,965.332,965.332,0
1667247898.104,964.355,967.773,965.332,965.332,0
1667247898.108,963.867,960.449,965.332,965.332,0
1667247898.112,964.355,942.871,965.332,965.332,0
1667247898.116,964.844,959.473,965.332,965.332,0
1667247898.134,964.355,968.750,965.332,964.844,0
1667247898.138,964.355,930.664,965.332,965.332,0
1667247898.142,964.355,898.926,965.332,965.820,0
1667247898.146,964.355,916.992,965.332,963.379,0
1667247898.150,964.355,960.449,965.332,969.238,0
1667247898.154,964.355,967.285,965.332,952.148,0
1667247898.158,965.332,963.379,965.820,945.312,0
1667247898.161,967.285,965.820,969.727,965.332,0
1667247898.165,941.406,965.332,943.848,945.312,0
1667247898.169,993.652,966.309,990.234,986.328,0
1667247898.173,765.137,966.309,842.285,653.809,0
1667247898.177,93.262,948.730,267.090,-53.223,0
1667247898.179,-243.164,983.887,-165.527,-419.922,0
1667247898.183,-730.957,757.324,-773.926,-854.980,0
1667247898.187,-1000.000,200.195,-1000.000,-1000.000,0
1667247898.191,-979.492,-320.801,-973.633,-979.980,0
1667247898.195,-1000.000,-894.043,-1000.000,-1000.000,0
1667247898.199,-1000.000,-1000.000,-1000.000,-1000.000,0
1667247898.203,-1000.000,-978.027,-1000.000,-1000.000,0
1667247898.206,-1000.000,-1000.000,-1000.000,-1000.000,0
1667247898.210,-1000.000,-1000.000,-1000.000,-1000.000,0
1667247898.214,-1000.000,-1000.000,-1000.000,-1000.000,0
1667247898.218,-1000.000,-1000.000,-1000.000,-1000.000,0
1667247898.222,-1000.000,-1000.000,-1000.000,-1000.000,0
1667247898.223,-1000.000,-1000.000,-1000.000,-1000.000,0
1667247898.227,-1000.000,-1000.000,-1000.000,-1000.000,0
1667247898.231,-1000.000,-1000.000,-1000.000,-1000.000,0
1667247898.235,-1000.000,-1000.000,-1000.000,-1000.000,0
1667247898.239,-1000.000,-1000.000,-1000.000,-1000.000,0
1667247898.243,-1000.000,-1000.000,-1000.000,-1000.000,0
1667247898.247,-1000.000,-1000.000,-1000.000,-1000.000,0
1667247898.250,-1000.000,-1000.000,-1000.000,-1000.000,0
1667247898.254,-1000.000,-993.164,-1000.000,-1000.000,0
1667247898.258,-1000.000,-1000.000,-1000.000,-1000.000,0
1667247898.262,-1000.000,-1000.000,-1000.000,-1000.000,0
1667247898.266,-1000.000,-718.750,-1000.000,-1000.000,0
1667247898.269,-1000.000,-718.262,-1000.000,-1000.000,0
1667247898.273,-1000.000,-1000.000,-1000.000,-1000.000,0
1667247898.277,-1000.000,-993.164,-1000.000,-1000.000,0
1667247898.281,-1000.000,-965.820,-1000.000,-1000.000,0
1667247898.285,-969.727,-1000.000,-965.332,-992.188,0
1667247898.289,-1000.000,-385.742,-1000.000,-996.582,0
1667247898.293,-910.645,769.531,-796.875,-1000.000,0
1667247898.296,15.137,-998.047,274.414,-585.938,0
1667247898.300,522.461,926.758,846.680,-194.824,0
1667247898.304,627.930,973.145,903.320,-56.152,0
1667247898.308,926.270,965.332,972.656,541.504,0
1667247898.312,975.098,965.332,961.914,976.074,0
1667247898.314,956.055,965.332,966.309,954.590,0
1667247898.318,966.797,965.332,965.332,958.984,0
1667247898.322,964.355,965.820,965.332,967.773,0
1667247898.326,964.844,965.332,965.332,965.332,0
1667247898.330,964.355,965.332,965.332,965.332,0
1667247898.334,964.355,965.332,965.332,965.332,0
1667247898.338,964.355,965.332,965.332,965.332,0
1667247898.341,964.355,965.332,965.820,965.332,0
1667247898.345,964.355,965.332,965.332,965.332,0
1667247898.349,964.844,970.215,965.332,964.844,0
1667247898.353,964.355,947.754,965.332,965.332,0
1667247898.357,964.355,980.957,965.332,965.332,0
1667247898.359,964.844,922.852,964.844,965.332,0
1667247898.363,964.355,441.895,964.844,965.332,0
1667247898.367,964.355,223.633,965.332,965.332,0
1667247898.371,964.355,268.066,965.332,965.332,0
1667247898.375,964.355,199.707,965.332,965.332,0
1667247898.379,964.844,168.945,965.332,965.332,0
1667247898.383,964.844,173.828,965.332,965.332,0
1667247898.386,964.355,279.297,965.332,965.332,0
1667247898.390,964.355,413.574,965.332,965.332,0
1667247898.394,964.844,474.121,965.332,965.332,0
1667247898.398,964.844,477.539,965.332,965.332,0
1667247898.402,964.844,478.027,964.844,965.332,0
1667247898.419,964.844,503.418,964.844,965.332,0
1667247898.423,964.844,511.719,965.332,965.820,0
1667247898.427,964.355,489.746,965.332,965.332,0
1667247898.431,964.355,461.426,965.332,965.332,0
1667247898.435,964.355,450.684,965.332,965.332,0
1667247898.439,964.844,439.941,964.844,965.332,0
1667247898.443,964.355,436.523,964.844,965.332,0
1667247898.446,964.355,459.961,965.332,964.844,0
1667247898.450,964.844,523.926,965.332,965.332,0
1667247898.454,964.355,584.961,965.332,965.332,0
1667247898.458,964.355,646.973,965.332,964.844,0
1667247898.462,964.355,709.473,965.332,965.332,0
1667247898.449,964.355,751.953,965.332,965.332,0
1667247898.453,964.844,738.281,965.332,965.332,0
1667247898.457,964.355,699.219,965.332,965.332,0
1667247898.461,964.355,660.156,964.844,965.332,0
1667247898.465,964.844,608.398,965.332,965.332,0
1667247898.469,964.844,564.941,965.332,965.332,0
1667247898.473,964.844,527.832,965.332,965.332,0
1667247898.476,964.355,461.426,965.332,965.332,0
1667247898.480,964.844,379.883,965.332,964.844,0
1667247898.484,964.844,335.938,965.332,964.844,0
1667247898.488,964.355,285.645,965.332,965.332,0
1667247898.492,964.355,238.281,965.332,965.332,0
1667247898.510,964.355,229.492,965.332,965.332,0
1667247898.514,964.844,212.402,965.332,965.332,0
1667247898.518,964.355,206.543,965.332,965.332,0
1667247898.522,964.355,203.125,965.332,965.332,0
1667247898.526,964.355,201.660,965.332,965.332,0
1667247898.530,964.355,190.918,965.332,965.332,0
1667247898.534,964.844,193.848,965.332,965.332,0
1667247898.537,964.355,228.027,964.844,965.332,0
1667247898.541,964.844,251.465,965.332,965.332,0
1667247898.545,964.844,254.395,965.332,965.332,0
1667247898.549,964.844,260.742,965.332,965.332,0
1667247898.553,964.355,280.273,965.332,964.844,0
1667247898.553,964.355,305.664,965.332,964.844,0
1667247898.557,964.355,336.914,965.332,965.332,0
1667247898.561,964.355,387.207,965.332,965.332,0
1667247898.565,964.355,437.988,965.332,965.332,0
1667247898.569,964.355,493.652,965.332,965.332,0
1667247898.573,964.844,544.434,965.332,965.332,0
1667247898.577,964.844,578.613,965.332,965.332,0
1667247898.580,964.844,608.398,965.332,965.332,0
1667247898.584,964.844,632.812,965.332,965.332,0
1667247898.588,964.355,636.719,965.332,964.844,0
1667247898.592,964.355,621.582,965.332,965.332,0
1667247898.596,964.844,597.168,965.332,965.332,0
1667247898.598,964.844,610.352,965.332,965.332,0
1667247898.602,964.355,663.086,965.332,965.332,0
1667247898.606,964.844,688.477,965.332,965.332,0
1667247898.610,964.355,700.684,965.332,965.332,0
1667247898.614,964.355,718.262,965.332,965.332,0
1667247898.618,964.355,727.539,965.332,965.332,0
1667247898.622,964.355,719.238,965.332,964.844,0
1667247898.625,964.355,692.383,965.332,965.332,0
1667247898.629,964.844,684.082,965.332,965.332,0
1667247898.633,964.844,670.410,965.332,965.332,0
1667247898.637,964.355,632.812,965.332,965.332,0
1667247898.641,964.355,618.164,964.844,965.820,0
1667247898.643,964.355,612.793,964.844,964.355,0
1667247898.647,964.355,605.469,965.332,965.820,0
1667247898.651,965.332,586.914,965.332,960.938,0
1667247898.655,962.402,542.969,965.332,937.012,0
1667247898.659,964.844,509.766,964.355,892.578,0
1667247898.663,964.844,479.004,965.820,832.520,0
1667247898.667,885.254,436.035,963.379,769.531,0
1667247898.670,815.918,395.996,930.664,730.957,0
1667247898.674,832.520,379.395,894.043,754.395,0
1667247898.678,827.637,367.676,880.859,708.984,0
1667247898.682,837.891,452.148,932.129,763.672,0
1667247898.686,926.758,577.637,968.262,914.062,0
1667247898.689,927.246,509.766,963.379,856.445,0
1667247898.693,902.344,429.688,962.891,797.852,0
1667247898.697,782.227,405.762,915.039,732.422,0
1667247898.701,699.219,382.812,868.652,671.875,0
1667247898.705,709.961,359.863,843.262,655.762,0
1667247898.709,730.469,330.566,816.406,635.254,0
1667247898.713,683.594,301.270,783.691,593.262,0
1667247898.716,557.617,268.066,751.465,556.641,0
1667247898.720,541.016,254.395,728.516,533.691,0
1667247898.724,642.090,262.695,733.887,541.016,0
1667247898.728,633.301,264.160,743.164,537.598,0
1667247898.732,529.785,253.418,738.770,486.816,0
1667247898.734,522.949,240.234,728.027,476.074,0
1667247898.738,560.059,235.352,729.004,496.094,0
1667247898.742,550.781,249.512,743.652,477.051,0
1667247898.746,530.762,273.438,751.953,454.102,0
1667247898.750,519.043,277.832,750.977,423.828,0
1667247898.754,533.203,291.992,741.699,437.012,0
1667247898.758,540.527,302.734,738.770,473.145,0
1667247898.761,481.445,300.781,727.539,450.684,0
1667247898.765,431.641,285.645,715.332,430.176,0
1667247898.769,464.355,302.734,722.656,441.895,0
1667247898.773,508.789,321.289,714.844,431.152,0
1667247898.777,462.402,323.730,707.031,386.719,0
1667247898.794,367.188,328.125,711.914,358.398,0
1667247898.798,334.961,306.152,693.848,323.730,0
1667247898.802,370.117,295.898,678.711,278.809,0
1667247898.806,274.902,273.926,669.434,219.238,0
1667247898.810,156.250,230.957,645.996,139.648,0
1667247898.814,209.961,233.887,621.582,108.398,0
1667247898.818,201.172,213.867,621.094,66.895,0
1667247898.821,164.062,216.309,589.355,12.695,0
1667247898.825,103.027,238.770,565.918,-50.781,0
1667247898.829,86.914,194.336,557.617,-95.703,0
1667247898.833,117.188,159.180,537.598,-134.766,0
1667247898.837,150.879,153.809,529.785,-148.926,0
1667247898.825,111.816,171.875,520.996,-181.152,0
1667247898.829,-0.977,167.480,534.180,-238.770,0
1667247898.833,42.969,173.340,522.461,-220.703,0
1667247898.837,143.066,163.574,506.836,-210.449,0
1667247898.841,291.504,155.273,492.188,-240.234,0
1667247898.845,237.305,182.129,488.770,-200.684,0
1667247898.849,202.637,180.664,477.539,-177.246,0
1667247898.852,283.203,192.383,471.191,-120.605,0
1667247898.856,196.289,203.613,502.930,-92.773,0
1667247898.860,189.453,172.363,483.398,-90.820,0
1667247898.864,253.906,151.855,469.727,-61.523,0
1667247898.868,305.176,176.270,482.910,-29.297,0
1667247898.884,247.559,204.102,464.355,-65.918,0
1667247898.888,161.133,161.621,502.930,-144.531,0
1667247898.892,257.812,166.016,495.605,-39.551,0
1667247898.896,309.570,165.039,485.840,38.574,0
1667247898.900,233.887,108.398,514.160,85.449,0
1667247898.904,375.000,113.770,466.309,119.141,0
1667247898.908,416.992,229.980,456.055,54.688,0
1667247898.911,392.090,240.723,466.797,79.590,0
1667247898.915,343.750,156.250,477.539,219.238,0
1667247898.919,238.281,241.211,554.199,-27.344,0
1667247898.923,283.691,287.109,554.688,-146.484,0
1667247898.927,393.066,188.477,535.156,341.797,0
1667247898.929,393.066,202.637,558.105,322.754,0
1667247898.933,268.555,231.445,485.352,228.027,0
1667247898.937,212.891,173.340,500.977,281.738,0
1667247898.941,402.344,125.977,555.664,220.215,0
1667247898.945,460.938,207.031,469.238,160.156,0
1667247898.949,271.484,224.121,442.871,120.117,0
1667247898.953,227.051,171.875,493.652,57.129,0
1667247898.956,325.195,224.121,428.711,199.219,0
1667247898.960,447.754,172.852,419.434,521.973,0
1667247898.964,438.477,148.438,410.156,248.047,0
1667247898.968,191.895,254.883,351.074,-27.832,0
1667247898.972,68.848,133.301,419.434,211.914,0
1667247898.974,127.441,195.312,405.273,29.297,0
1667247898.978,330.078,129.883,376.465,-80.078,0
1667247898.982,531.250,23.926,358.398,326.660,0
1667247898.986,269.043,127.930,369.141,200.195,0
1667247898.990,194.336,111.328,284.668,139.160,0
1667247898.994,233.887,95.703,284.668,-28.809,0
1667247898.998,45.410,143.555,278.320,-145.508,0
1667247899.001,176.270,95.215,258.789,217.773,0
1667247899.005,71.777,51.270,266.602,-70.312,0
1667247899.009,-53.223,116.699,116.699,-186.523,0
1667247899.013,97.168,18.555,132.324,131.348,0
1667247899.017,61.035,-54.199,142.090,10.254,0
1667247899.028,151.367,-73.730,57.617,-174.805,0
1667247899.032,142.578,-68.848,83.496,11.230,0
1667247899.036,118.164,-79.590,160.645,-126.465,0
1667247899.040,-12.695,-83.984,105.957,-109.863,0
1667247899.044,-96.191,-46.387,145.508,-67.383,0
1667247899.048,-18.555,-44.434,152.832,-148.926,0
1667247899.052,196.289,-63.965,-31.738,11.230,0
1667247899.055,57.129,-6.836,14.160,-312.012,0
1667247899.059,-159.668,-11.230,65.430,-260.254,0
1667247899.063,-68.848,-38.574,-78.125,111.328,0
1667247899.067,-32.715,-129.395,-48.828,-21.484,0
1667247899.071,-28.809,-130.859,149.902,-238.281,0
1667247899.063,-131.836,-126.465,140.625,-112.793,0
1667247899.067,-124.512,-168.945,-52.246,-105.957,0
1667247899.071,-20.996,-106.934,-47.363,-212.402,0
1667247899.075,-274.414,-85.938,-68.359,-63.965,0
1667247899.079,-201.172,-195.801,-52.246,-65.430,0
1667247899.083,-152.832,-98.145,-17.578,-191.895,0
1667247899.087,-206.543,-72.754,-107.910,-118.164,0
1667247899.090,-111.328,-159.180,-145.508,111.816,0
1667247899.094,-204.590,-242.188,-65.430,-14.160,0
1667247899.098,-340.820,-188.477,-35.645,-222.656,0
1667247899.102,-242.676,-185.059,-133.789,-282.715,0
1667247899.106,-247.070,-230.469,-162.109,57.617,0
1667247899.108,-290.527,-248.047,-6.836,108.398,0
1667247899.112,-247.559,-163.574,-40.039,-212.402,0
1667247899.116,-215.820,-125.977,-152.344,-70.312,0
1667247899.120,-114.746,-118.652,-116.699,-0.488,0
1667247899.124,-176.270,-35.645,-94.238,-170.410,0
1667247899.128,-153.809,-75.684,-134.766,-76.660,0
1667247899.132,-103.027,-187.500,-47.852,4.395,0
1667247899.135,-207.520,-173.828,45.898,-52.734,0
1667247899.139,-196.289,-147.461,-82.031,3.906,0
1667247899.143,-58.594,-221.191,-121.094,133.301,0
1667247899.147,-251.953,-167.969,-41.504,-11.230,0
1667247899.151,-351.562,-97.168,-78.613,-203.613,0
1667247899.168,-7.324,-183.105,-59.570,47.363,0
1667247899.172,5.859,-192.871,-47.852,176.758,0
1667247899.176,-275.391,-147.949,-125.488,-135.742,0
1667247899.180,-273.438,-174.805,-91.797,-143.555,0
1667247899.184,-170.898,-108.398,-37.109,173.340,0
1667247899.188,-84.961,-125.977,-66.895,148.926,0
1667247899.192,-114.746,-156.738,-17.090,113.770,0
1667247899.195,-306.641,-118.652,90.332,7.812,0
1667247899.199,-196.777,-156.738,5.371,-50.781,0
1667247899.203,-83.496,-205.566,44.922,154.785,0
1667247899.207,-183.594,-137.207,8.789,197.266,0
1667247899.211,-162.598,-57.617,-83.984,186.523,0
1667247899.199,-125.977,-63.965,-56.641,157.715,0
1667247899.203,-97.168,-153.809,9.277,192.871,0
1667247899.207,-227.539,-124.023,38.574,80.566,0
1667247899.211,-333.008,-98.633,2.930,-175.781,0
1667247899.215,-198.730,-212.891,45.898,-50.293,0
1667247899.219,-72.754,-155.273,-4.395,279.297,0
1667247899.223,-164.551,-107.422,3.906,206.055,0
1667247899.226,-347.656,-149.902,41.016,118.164,0
1667247899.230,-339.844,-108.398,-1.953,123.535,0
1667247899.234,-271.973,-67.383,27.344,79.590,0
1667247899.238,-175.293,-108.887,74.707,181.152,0
1667247899.242,-187.988,-96.191,84.961,226.562,0
1667247899.258,-221.191,-117.188,120.117,99.609,0
1667247899.262,-104.004,-116.211,69.824,342.285,0
1667247899.266,-137.207,-90.332,88.867,314.941,0
1667247899.270,-310.547,-73.730,140.625,76.172,0
1667247899.274,-261.230,-30.273,71.777,193.848,0
1667247899.278,-154.297,-17.090,55.176,201.172,0
1667247899.282,-156.738,-63.477,75.195,265.625,0
1667247899.285,-139.648,-63.477,84.473,253.418,0
1667247899.289,-143.066,-55.664,110.840,202.148,0
1667247899.293,-143.066,-49.805,135.254,282.227,0
1667247899.297,-139.160,-28.320,132.324,260.742,0
1667247899.301,-140.625,-16.602,123.535,242.188,0
1667247899.304,-208.008,-5.371,141.602,215.820,0
1667247899.308,-205.566,-3.418,151.367,197.754,0
1667247899.312,-90.332,-10.742,153.809,215.820,0
1667247899.316,-27.832,-10.742,144.043,246.094,0
1667247899.320,-120.117,-20.508,130.371,201.172,0
1667247899.324,-166.016,-22.949,139.648,199.707,0
1667247899.328,-93.262,6.836,153.320,229.004,0
1667247899.331,-19.043,10.254,149.902,245.117,0
1667247899.335,-55.176,9.277,155.273,235.352,0
1667247899.339,-131.348,34.180,155.762,198.242,0
1667247899.343,-91.797,43.457,143.555,202.637,0
1667247899.347,1.465,38.086,145.996,211.914,0
1667247899.349,6.836,36.621,152.344,202.637,0
1667247899.353,-62.988,43.945,156.738,161.621,0
1667247899.357,-48.828,49.805,167.480,155.762,0
1667247899.361,31.250,48.828,171.875,178.711,0
1667247899.365,17.090,37.598,170.410,169.434,0
1667247899.369,-53.223,30.273,164.551,171.387,0
1667247899.373,-71.777,31.738,153.809,164.551,0
1667247899.376,-3.906,36.133,146.973,143.066,0
1667247899.380,57.617,34.668,149.414,179.688,0
1667247899.384,-20.996,37.598,146.484,145.020,0
1667247899.388,-76.660,35.156,137.207,112.305,0
1667247899.392,-31.250,21.973,131.836,148.438,0
1667247899.394,2.441,11.230,130.859,145.996,0
1667247899.398,-38.574,9.277,135.742,122.070,0
1667247899.402,-89.844,16.113,136.230,115.234,0
1667247899.406,-62.500,12.207,143.555,146.973,0
1667247899.410,29.297,16.602,169.922,194.824,0
1667247899.414,75.195,48.828,200.195,229.004,0
1667247899.418,7.324,68.359,212.891,210.449,0
1667247899.421,10.254,85.938,221.680,200.684,0
1667247899.425,118.652,104.492,222.168,226.562,0
1667247899.429,136.719,98.633,220.703,235.352,0
1667247899.433,57.617,84.473,225.098,205.078,0
1667247899.437,21.973,75.195,218.750,147.949,0
1667247899.439,93.750,66.406,218.750,172.852,0
1667247899.443,135.254,73.730,223.633,176.270,0
1667247899.447,57.617,78.125,221.191,109.375,0
1667247899.451,0.000,81.055,209.473,61.035,0
1667247899.455,59.570,83.008,194.824,27.344,0
1667247899.459,126.953,73.242,192.383,32.715,0
1667247899.463,78.125,69.336,199.707,38.574,0
1667247899.466,-10.254,75.195,201.172,-37.109,0
1667247899.470,16.602,78.125,181.641,-49.805,0
1667247899.474,72.266,85.938,174.316,-37.109,0
1667247899.478,65.430,97.656,183.594,-51.270,0
1667247899.482,5.859,91.797,176.758,-63.477,0
1667247899.486,-11.719,89.844,173.828,-67.383,0
1667247899.490,69.336,90.332,180.664,-27.344,0
1667247899.494,107.422,70.801,166.992,-65.430,0
1667247899.498,1.465,47.363,137.207,-163.574,0
1667247899.502,-80.078,34.668,123.535,-177.734,0
1667247899.506,-13.184,22.461,104.492,-160.645,0
1667247899.510,41.992,22.949,97.656,-175.293,0
1667247899.513,-38.086,21.973,95.215,-211.914,0
1667247899.517,-104.492,-0.977,81.543,-263.184,0
1667247899.521,-51.758,-0.488,79.102,-264.160,0
1667247899.525,24.902,13.672,74.219,-242.188,0
1667247899.529,-2.930,15.137,62.988,-270.996,0
1667247899.529,-88.867,7.812,56.152,-316.406,0
1667247899.533,-83.008,3.906,54.688,-302.734,0
1667247899.537,-7.812,5.859,53.711,-284.180,0
1667247899.541,-15.137,15.137,45.898,-315.918,0
1667247899.545,-91.309,21.973,42.969,-347.168,0
1667247899.549,-91.309,22.949,62.012,-302.734,0
1667247899.553,-24.414,33.691,84.961,-286.621,0
1667247899.556,-1.465,30.762,76.172,-323.730,0
1667247899.560,-63.965,40.527,68.848,-325.195,0
1667247899.564,-120.117,50.293,72.754,-327.637,0
1667247899.568,-57.617,56.152,75.684,-304.688,0
1667247899.572,-12.207,66.895,86.914,-290.039,0
1667247899.588,-84.961,34.180,69.824,-334.961,0
1667247899.592,-155.273,19.043,61.523,-365.723,0
1667247899.596,-152.832,20.996,62.500,-362.305,0
1667247899.600,-114.258,9.277,48.340,-371.582,0
1667247899.604,-138.672,22.949,41.992,-429.199,0
1667247899.608,-225.098,40.039,46.875,-467.285,0
1667247899.612,-233.887,44.434,52.734,-436.523,0
1667247899.615,-176.758,48.828,57.617,-432.129,0
1667247899.619,-152.832,59.082,67.871,-465.820,0
1667247899.623,-262.695,51.270,70.801,-487.793,0
1667247899.627,-327.148,38.574,64.941,-539.062,0
1667247899.631,-260.742,38.574,61.035,-534.180,0
1667247899.634,-200.684,36.621,67.383,-513.672,0
1667247899.638,-269.043,35.156,66.895,-562.012,0
1667247899.642,-338.867,39.062,50.293,-586.914,0
1667247899.646,-285.645,32.715,30.762,-552.734,0
1667247899.650,-236.328,24.414,24.902,-543.457,0
1667247899.654,-279.785,25.879,25.391,-569.336,0
1667247899.658,-319.824,39.062,33.203,-542.480,0
1667247899.661,-277.832,48.828,44.922,-511.719,0
1667247899.665,-195.312,34.180,37.598,-521.484,0
1667247899.669,-186.523,16.113,43.457,-484.375,0
1667247899.673,-263.672,20.996,53.223,-471.680,0
1667247899.677,-241.211,31.250,42.480,-469.238,0
1667247899.680,-155.762,36.621,38.086,-418.457,0
1667247899.684,-135.742,27.832,40.527,-399.902,0
1667247899.688,-184.570,26.855,27.832,-400.879,0
1667247899.692,-195.801,26.367,22.949,-403.809,0
1667247899.696,-106.934,21.973,30.273,-373.047,0
1667247899.700,-35.645,29.297,30.273,-324.219,0
1667247899.704,-95.703,36.133,21.973,-335.449,0
1667247899.707,-138.672,36.621,22.461,-325.684,0
1667247899.711,-57.617,40.039,25.879,-294.922,0
1667247899.715,1.465,45.898,23.438,-273.438,0
1667247899.719,-48.828,30.273,10.254,-293.457,0
1667247899.723,-109.375,20.020,1.465,-300.293,0
1667247899.724,-65.430,23.926,5.859,-258.789,0
1667247899.728,6.348,22.949,-0.977,-230.957,0
1667247899.732,11.719,14.160,-7.324,-243.652,0
1667247899.736,-45.410,15.625,0.977,-242.676,0
1667247899.740,-48.340,26.855,5.859,-212.402,0
1667247899.744,12.695,36.133,2.930,-202.148,0
1667247899.748,26.367,37.109,2.930,-204.102,0
1667247899.751,-10.742,34.668,3.906,-225.098,0
1667247899.755,-29.297,50.781,13.672,-203.613,0
1667247899.759,46.387,71.777,28.320,-149.414,0
1667247899.763,116.699,78.613,30.273,-138.184,0
1667247899.767,53.711,87.402,23.926,-156.250,0
1667247899.769,-6.348,80.078,28.809,-173.828,0
1667247899.773,26.855,67.871,29.785,-159.668,0
1667247899.777,85.449,69.336,13.672,-164.062,0
1667247899.781,58.594,62.988,7.324,-174.316,0
1667247899.785,-36.133,57.129,15.137,-177.246,0
1667247899.789,-8.301,81.055,38.086,-145.996,0
1667247899.793,88.379,104.492,48.828,-128.906,0
1667247899.796,93.262,110.352,56.152,-141.113,0
1667247899.800,35.156,103.027,61.523,-144.043,0
1667247899.804,5.859,91.797,59.082,-151.855,0
1667247899.808,73.730,76.172,57.617,-134.766,0
1667247899.812,113.281,57.617,41.992,-141.602,0
1667247899.814,0.977,35.645,23.926,-193.848,0
1667247899.818,-61.523,26.367,16.113,-228.027,0
1667247899.822,-2.441,19.043,21.484,-203.613,0
1667247899.826,51.758,14.648,27.344,-209.961,0
1667247899.830,0.488,25.391,19.531,-254.395,0
1667247899.834,-61.035,27.344,20.508,-270.020,0
1667247899.838,-15.625,20.996,20.996,-236.328,0
1667247899.841,59.570,9.766,11.719,-201.172,0
1667247899.845,23.926,0.977,1.953,-239.258,0
1667247899.849,-61.035,4.395,-1.465,-265.137,0
1667247899.853,-39.062,15.137,9.766,-241.699,0
1667247899.857,34.180,33.203,31.250,-193.848,0
1667247899.859,49.805,62.012,45.898,-152.344,0
1667247899.863,6.836,74.707,49.805,-145.508,0
1667247899.867,-26.855,70.801,47.852,-158.691,0
1667247899.871,46.875,75.684,55.176,-142.578,0
1667247899.875,108.398,83.008,67.383,-126.465,0
1667247899.879,42.969,86.426,71.777,-143.555,0
1667247899.883,-13.184,81.055,70.801,-140.625,0
1667247899.886,41.504,84.473,64.941,-118.652,0
1667247899.890,88.379,79.590,62.988,-123.047,0
1667247899.894,43.945,59.082,55.176,-154.297,0
1667247899.898,-19.043,48.340,41.992,-170.898,0
1667247899.902,15.137,59.082,56.641,-131.836,0
1667247899.904,101.562,79.102,81.055,-92.285,0
1667247899.908,119.141,94.727,108.398,-83.496,0
1667247899.912,51.758,101.562,125.000,-74.707,0
1667247899.916,17.578,108.398,111.816,-94.727,0
1667247899.920,80.566,98.633,106.445,-79.590,0
1667247899.924,119.141,91.797,122.559,-54.688,0
1667247899.928,49.805,88.867,124.512,-103.516,0
1667247899.931,-23.438,76.172,113.281,-142.578,0
1667247899.935,31.738,65.430,105.469,-124.023,0
1667247899.939,76.172,47.852,86.914,-125.977,0
1667247899.943,3.906,41.504,70.312,-147.949,0
1667247899.947,-43.945,40.527,64.453,-158.203,0
1667247899.949,3.906,34.668,58.105,-138.672,0
1667247899.953,50.293,43.457,63.965,-110.352,0
1667247899.957,10.742,39.062,64.453,-141.113,0
1667247899.961,-53.223,18.066,28.809,-192.871,0
1667247899.965,-57.617,-9.766,-5.859,-198.242,0
1667247899.969,-16.113,-22.461,0.000,-177.734,0
1667247899.973,-22.949,-19.043,2.930,-188.477,0
1667247899.976,-100.098,-15.137,-4.395,-229.492,0
1667247899.980,-118.652,-17.578,0.977,-218.262,0
1667247899.984,-45.410,-29.297,4.395,-177.734,0
1667247899.988,-20.508,-38.574,5.859,-201.660,0
1667247899.992,-84.961,-39.551,-5.859,-238.281,0
1667247900.008,-96.191,-39.551,-21.484,-237.305,0
1667247900.012,-76.660,-53.223,-23.438,-206.543,0
1667247900.016,-83.496,-60.547,-30.273,-219.238,0
1667247900.020,-102.539,-53.711,-39.062,-232.422,0
1667247900.024,-128.418,-49.805,-31.738,-242.188,0
1667247900.028,-87.402,-54.199,-23.438,-225.586,0
1667247900.032,-30.762,-59.570,-19.531,-196.289,0
1667247900.035,-67.383,-50.293,-14.648,-204.102,0
1667247900.039,-137.695,-50.293,-11.719,-230.469,0
1667247900.043,-120.117,-80.078,-15.625,-219.727,0
1667247900.047,-65.918,-95.215,-30.273,-209.961,0
1667247900.051,-74.219,-99.121,-34.180,-231.934,0
1667247900.052,-149.414,-88.867,-31.738,-243.164,0
1667247900.056,-179.199,-79.102,-42.969,-254.395,0
1667247900.060,-100.586,-89.844,-54.688,-265.625,0
1667247900.064,-64.941,-91.797,-53.711,-236.816,0
1667247900.068,-114.258,-73.242,-49.316,-260.742,0
1667247900.072,-147.949,-60.059,-40.527,-263.184,0
1667247900.076,-108.887,-50.781,-44.434,-226.562,0
1667247900.079,-33.691,-42.480,-33.203,-218.750,0
1667247900.083,-44.434,-36.133,-3.418,-216.797,0
1667247900.087,-118.164,-31.738,1.953,-221.191,0
1667247900.091,-71.777,-20.020,14.648,-199.707,0
1667247900.095,21.973,16.602,35.156,-157.715,0
1667247900.099,8.789,31.250,47.363,-129.395,0
1667247900.103,-64.941,17.090,36.133,-156.250,0
1667247900.107,-78.125,9.277,26.855,-182.617,0
1667247900.111,16.602,7.324,50.781,-123.535,0
1667247900.115,45.410,15.137,60.059,-125.000,0
1667247900.119,-42.969,16.113,53.223,-174.316,0
1667247900.123,-69.824,26.367,67.383,-185.059,0
1667247900.126,40.527,50.781,103.027,-115.234,0
1667247900.130,107.422,55.664,122.559,-63.477,0
1667247900.134,16.113,55.664,122.559,-101.074,0
1667247900.138,-23.926,66.406,124.023,-112.793,0
1667247900.142,23.926,62.988,112.793,-95.703,0
1667247900.144,54.688,55.664,104.980,-109.375,0
1667247900.148,42.969,57.617,107.910,-129.883,0
1667247900.152,-17.578,65.918,119.141,-163.574,0
1667247900.156,19.531,89.355,140.625,-126.953,0
1667247900.160,130.371,126.953,177.246,-29.785,0
1667247900.164,150.391,169.434,225.098,-2.441,0
1667247900.168,126.953,216.309,263.184,-7.812,0
1667247900.171,143.555,221.680,285.156,27.344,0
1667247900.175,196.777,203.125,276.367,49.316,0
1667247900.179,204.102,188.477,263.672,19.043,0
1667247900.183,122.559,165.039,247.559,-10.254,0
1667247900.187,54.688,132.812,216.309,-34.180,0
1667247900.189,87.402,102.539,188.965,-49.316,0
1667247900.193,128.418,97.656,170.410,-59.570,0
1667247900.197,60.547,106.445,158.203,-80.566,0
1667247900.201,-4.395,92.773,157.227,-89.355,0
1667247900.205,12.695,70.801,142.578,-96.191,0
1667247900.209,65.430,68.359,124.023,-108.887,0
1667247900.213,43.945,57.129,117.676,-121.094,0
1667247900.216,-43.457,39.062,116.699,-153.320,0
1667247900.220,-44.922,40.527,98.633,-161.621,0
1667247900.224,11.230,23.438,74.219,-149.414,0
1667247900.228,25.391,11.719,76.172,-166.504,0
1667247900.232,-61.035,20.996,81.055,-182.129,0
1667247900.235,-103.516,11.230,73.242,-163.574,0
1667247900.239,-14.648,5.859,70.312,-170.410,0
1667247900.243,3.906,1.465,60.547,-176.270,0
1667247900.247,-83.496,-8.789,46.387,-184.082,0
1667247900.251,-120.605,-7.324,43.945,-203.613,0
1667247900.255,-69.824,-16.602,36.133,-219.238,0
1667247900.259,-41.992,-28.320,23.926,-208.496,0
1667247900.262,-91.309,-31.738,21.484,-220.703,0
1667247900.266,-132.812,-24.902,23.438,-246.582,0
1667247900.270,-66.406,3.418,41.504,-190.430,0
1667247900.274,17.090,24.902,64.453,-133.789,0
1667247900.278,-12.695,21.973,57.617,-166.504,0
1667247900.279,-132.324,6.836,36.133,-210.449,0
1667247900.283,-116.211,8.789,36.133,-187.012,0
1667247900.287,-2.930,25.879,48.828,-163.086,0
1667247900.291,7.812,42.480,60.547,-144.531,0
1667247900.295,-83.984,43.457,62.012,-162.598,0
1667247900.299,-86.426,30.762,55.176,-171.875,0
1667247900.303,-4.395,12.207,50.293,-137.695,0
1667247900.306,10.742,11.230,46.875,-164.551,0
1667247900.310,-58.594,10.742,52.734,-178.711,0
1667247900.314,-115.723,-0.488,45.898,-167.969,0
1667247900.318,-69.824,-7.812,23.438,-178.223,0
1667247900.322,-27.832,-16.602,12.207,-171.875,0
1667247900.323,-94.727,-29.297,7.812,-195.312,0
1667247900.327,-161.133,-20.996,13.184,-205.078,0
1667247900.331,-117.188,-7.324,20.996,-187.500,0
1667247900.335,-28.809,-9.277,23.926,-167.480,0
1667247900.339,-24.414,0.000,35.645,-161.133,0
1667247900.343,-106.445,5.859,35.645,-205.078,0
1667247900.347,-122.070,11.230,29.297,-205.078,0
1667247900.350,-23.438,21.484,38.574,-154.297,0
1667247900.354,-3.418,17.578,46.875,-146.484,0
1667247900.358,-64.453,15.625,55.664,-161.133,0
1667247900.362,-74.707,9.277,61.035,-155.273,0
1667247900.366,-48.340,2.930,49.805,-155.273,0
1667247900.384,8.301,19.043,46.387,-129.883,0
1667247900.388,-31.738,31.738,54.199,-134.766,0
1667247900.392,-116.699,18.555,53.223,-163.086,0
1667247900.396,-73.242,13.672,50.293,-163.574,0
1667247900.400,-8.789,20.508,50.781,-151.367,0
1667247900.404,-19.531,21.973,57.129,-158.203,0
1667247900.408,-76.172,31.250,56.641,-148.438,0
1667247900.411,-61.523,37.109,56.152,-149.902,0
1667247900.415,5.859,40.527,60.547,-137.695,0
1667247900.419,-6.348,0.488,47.363,-137.207,0
1667247900.423,-131.348,-53.711,6.836,-201.172,0
1667247900.427,-166.016,-63.477,-20.996,-240.723,0
1667247900.430,-87.891,-65.918,-26.855,-223.633,0
1667247900.434,-79.102,-64.941,-26.367,-220.215,0
1667247900.438,-147.461,-56.641,-20.020,-227.539,0
1667247900.442,-142.578,-35.645,-4.395,-217.285,0
1667247900.446,-41.504,-6.348,21.484,-182.129,0
1667247900.450,-2.441,-17.578,27.344,-170.898,0
1667247900.454,-80.566,-46.875,10.254,-220.215,0
1667247900.457,-156.250,-64.453,-11.230,-256.836,0
1667247900.461,-124.512,-74.219,-13.672,-250.488,0
1667247900.465,-52.734,-69.824,-8.789,-204.102,0
1667247900.469,-69.824,-68.359,-20.020,-235.840,0
1667247900.473,-172.852,-83.496,-29.785,-293.457,0
1667247900.475,-173.340,-89.355,-37.598,-260.254,0
1667247900.479,-83.008,-87.402,-45.898,-232.422,0
1667247900.483,-111.328,-86.914,-54.199,-265.137,0
1667247900.487,-188.477,-79.102,-57.129,-307.129,0
1667247900.491,-178.223,-71.289,-52.734,-288.574,0
1667247900.495,-126.465,-70.801,-62.988,-288.086,0
1667247900.499,-96.680,-79.102,-70.312,-286.621,0
1667247900.502,-144.043,-87.402,-61.523,-285.156,0
1667247900.506,-191.406,-89.355,-49.805,-286.621,0
1667247900.510,-146.973,-95.215,-49.805,-270.020,0
1667247900.514,-104.004,-99.121,-62.500,-265.625,0
1667247900.518,-141.602,-89.355,-70.312,-289.551,0
1667247900.519,-201.172,-81.543,-70.801,-280.273,0
1667247900.523,-156.738,-84.473,-62.988,-256.836,0
1667247900.527,-89.355,-91.797,-51.270,-242.676,0
1667247900.531,-120.605,-95.215,-59.570,-257.812,0
1667247900.535,-207.520,-95.703,-64.941,-290.039,0
1667247900.539,-202.637,-93.750,-54.199,-288.574,0
1667247900.543,-143.066,-90.332,-53.223,-277.344,0
1667247900.546,-130.371,-88.867,-44.922,-258.301,0
1667247900.550,-178.711,-81.055,-43.457,-261.230,0
1667247900.554,-226.074,-79.102,-54.688,-303.223,0
1667247900.558,-179.199,-94.727,-63.477,-286.133,0
1667247900.562,-131.836,-97.656,-74.707,-279.785,0
1667247900.564,-186.523,-90.820,-74.707,-282.715,0
1667247900.568,-268.066,-116.211,-87.402,-310.547,0
1667247900.572,-249.512,-158.691,-140.137,-355.957,0
1667247900.576,-205.566,-171.875,-168.945,-345.703,0
1667247900.580,-268.555,-167.480,-173.340,-370.117,0
1667247900.584,-328.125,-167.480,-175.781,-399.414,0
1667247900.588,-296.387,-170.898,-168.945,-379.883,0
1667247900.591,-231.445,-172.363,-172.852,-340.332,0
1667247900.595,-225.098,-171.875,-185.059,-357.910,0
1667247900.599,-301.758,-168.457,-189.453,-372.070,0
1667247900.603,-292.969,-164.551,-177.246,-361.328,0
1667247900.607,-196.289,-156.738,-166.504,-337.402,0
1667247900.610,-166.016,-145.996,-157.715,-339.355,0
1667247900.614,-241.699,-135.254,-147.949,-361.328,0
1667247900.618,-266.602,-135.254,-145.020,-342.285,0
1667247900.622,-206.055,-136.719,-146.973,-309.570,0
1667247900.626,-172.363,-131.348,-145.020,-299.805,0
1667247900.630,-230.469,-132.812,-143.555,-313.965,0
1667247900.634,-264.160,-132.324,-137.207,-319.824,0
1667247900.637,-191.895,-123.535,-128.418,-297.363,0
1667247900.641,-143.066,-119.141,-126.953,-286.621,0
1667247900.645,-184.570,-125.977,-121.094,-301.270,0
1667247900.649,-244.141,-138.184,-116.211,-318.359,0
1667247900.653,-225.586,-137.695,-116.211,-319.336,0
1667247900.654,-145.996,-125.977,-113.281,-278.320,0
1667247900.658,-146.484,-111.328,-100.098,-281.738,0
1667247900.662,-202.637,-104.004,-94.238,-302.734,0
1667247900.666,-201.660,-95.215,-99.609,-274.414,0
1667247900.670,-139.648,-94.727,-103.027,-251.465,0
1667247900.674,-96.191,-97.656,-91.797,-258.301,0
1667247900.678,-159.180,-84.961,-76.660,-254.395,0
1667247900.681,-216.797,-81.055,-75.195,-250.488,0
1667247900.685,-153.320,-79.590,-69.824,-248.047,0
1667247900.689,-98.145,-84.961,-73.730,-264.648,0
1667247900.693,-155.762,-90.332,-76.660,-288.086,0
1667247900.697,-197.754,-88.379,-62.500,-291.992,0
1667247900.700,-166.016,-108.887,-63.965,-274.902,0
1667247900.704,-110.840,-122.070,-86.426,-261.230,0
1667247900.708,-143.066,-119.141,-105.469,-287.109,0
1667247900.712,-222.656,-124.023,-118.164,-316.895,0
1667247900.716,-216.797,-123.535,-120.117,-293.457,0
1667247900.720,-139.648,-132.324,-112.305,-271.973,0
1667247900.724,-132.324,-146.973,-112.793,-277.344,0
1667247900.727,-211.914,-144.531,-107.910,-296.387,0
1667247900.731,-232.422,-144.531,-99.609,-294.922,0
1667247900.735,-148.438,-144.531,-92.285,-270.996,0
1667247900.739,-112.305,-132.812,-93.262,-257.324,0
1667247900.743,-187.500,-128.906,-105.469,-317.871,0
1667247900.760,-221.680,-121.582,-106.934,-311.523,0
1667247900.764,-171.387,-126.465,-96.191,-250.000,0
1667247900.768,-138.672,-137.695,-96.680,-249.023,0
1667247900.772,-176.758,-141.602,-109.863,-280.762,0
1667247900.776,-241.699,-150.391,-115.234,-294.922,0
1667247900.780,-217.773,-151.367,-116.211,-274.902,0
1667247900.784,-151.367,-151.855,-129.395,-253.906,0
1667247900.787,-170.898,-154.297,-132.324,-286.133,0
1667247900.791,-250.000,-153.320,-115.723,-276.367,0
1667247900.795,-233.887,-153.809,-106.445,-249.023,0
1667247900.799,-158.691,-148.926,-112.793,-270.020,0
1667247900.803,-157.227,-140.137,-103.516,-250.488,0
1667247900.805,-214.355,-124.023,-100.586,-271.973,0
1667247900.809,-232.910,-109.863,-101.562,-278.809,0
1667247900.813,-144.043,-104.980,-90.820,-234.375,0
1667247900.817,-107.422,-97.656,-85.938,-207.031,0
1667247900.821,-181.152,-94.727,-84.473,-224.609,0
1667247900.825,-226.074,-110.352,-80.078,-231.934,0
1667247900.829,-171.387,-111.328,-82.031,-203.125,0
1667247900.832,-101.074,-102.051,-90.332,-211.914,0
1667247900.836,-138.672,-113.770,-84.961,-218.262,0
1667247900.840,-209.473,-124.023,-76.660,-215.820,0
1667247900.844,-185.059,-123.047,-87.891,-243.652,0
1667247900.848,-145.020,-125.977,-95.215,-228.027,0
1667247900.849,-152.832,-132.812,-80.566,-199.219,0
1667247900.853,-213.867,-123.047,-76.660,-258.789,0
1667247900.857,-227.539,-113.281,-84.961,-278.320,0
1667247900.861,-140.137,-117.188,-71.777,-213.379,0
1667247900.865,-100.586,-116.211,-59.570,-202.148,0
1667247900.869,-179.199,-109.375,-66.406,-229.004,0
1667247900.873,-213.867,-110.352,-73.730,-240.234,0
1667247900.876,-143.555,-114.746,-66.406,-216.797,0
1667247900.880,-99.609,-117.188,-64.453,-226.074,0
1667247900.884,-147.461,-115.723,-70.312,-240.723,0
1667247900.888,-194.824,-114.746,-68.848,-250.488,0
1667247900.892,-149.414,-110.352,-64.941,-231.934,0
1667247900.894,-90.332,-102.051,-63.477,-194.336,0
1667247900.898,-104.980,-94.238,-51.758,-202.637,0
1667247900.902,-173.828,-87.402,-47.363,-208.496,0
1667247900.906,-171.875,-84.961,-48.340,-215.820,0
1667247900.910,-93.750,-87.891,-42.480,-221.680,0
1667247900.914,-87.891,-83.984,-41.016,-191.406,0
1667247900.918,-164.062,-89.844,-49.805,-219.238,0
1667247900.921,-178.711,-104.980,-52.246,-246.094,0
1667247900.925,-75.195,-100.586,-49.316,-215.820,0
1667247900.929,-70.312,-88.867,-53.711,-208.008,0
1667247900.933,-149.414,-89.355,-53.711,-225.098,0
1667247900.937,-181.641,-95.215,-47.363,-214.355,0
1667247900.940,-131.836,-96.191,-46.875,-188.477,0
1667247900.944,-75.684,-91.309,-41.504,-187.012,0
1667247900.948,-111.816,-90.820,-38.086,-210.449,0
1667247900.952,-173.340,-91.309,-35.645,-185.059,0
1667247900.956,-135.742,-93.750,-31.250,-192.871,0
1667247900.960,-78.613,-104.980,-31.738,-203.125,0
1667247900.964,-119.629,-119.141,-36.133,-207.031,0
1667247900.967,-180.664,-127.441,-35.156,-229.492,0
1667247900.971,-189.453,-130.371,-47.363,-224.121,0
1667247900.975,-141.602,-149.414,-69.824,-226.074,0
1667247900.979,-136.230,-167.480,-72.754,-237.305,0
1667247900.983,-205.566,-166.992,-67.383,-267.578,0
1667247901.000,-235.352,-158.691,-70.801,-253.418,0
1667247901.004,-170.898,-156.250,-70.312,-233.398,0
1667247901.008,-128.418,-153.320,-60.059,-229.980,0
1667247901.012,-171.387,-141.113,-51.270,-237.305,0
1667247901.016,-180.176,-120.605,-29.297,-216.797,0
1667247901.020,-116.211,-94.727,0.000,-184.082,0
1667247901.024,-50.781,-92.773,13.184,-149.902,0
1667247901.027,-74.707,-90.332,25.391,-159.180,0
1667247901.031,-151.855,-68.359,30.273,-179.199,0
1667247901.035,-122.559,-67.871,19.043,-159.668,0
1667247901.039,-42.480,-86.914,17.090,-158.691,0
1667247901.043,-58.105,-95.703,20.020,-167.969,0
1667247901.028,-162.109,-109.375,2.441,-184.570,0
1667247901.032,-173.340,-133.789,-10.254,-171.387,0
1667247901.036,-111.816,-147.949,-14.648,-173.828,0
1667247901.040,-99.121,-143.066,-23.926,-210.938,0
1667247901.044,-166.504,-135.742,-21.484,-223.145,0
1667247901.048,-192.871,-134.277,-8.301,-226.562,0
1667247901.052,-104.004,-118.652,16.113,-173.828,0
1667247901.055,-35.156,-87.891,41.016,-157.227,0
1667247901.059,-74.219,-69.824,57.129,-173.340,0
1667247901.063,-104.980,-61.523,60.547,-153.320,0
1667247901.067,-69.336,-60.059,52.246,-130.371,0
1667247901.071,-38.086,-78.613,40.039,-137.207,0
1667247901.073,-74.707,-102.539,23.438,-168.457,0
1667247901.077,-154.785,-117.188,10.742,-212.402,0
1667247901.081,-106.445,-111.816,20.996,-191.895,0
1667247901.085,-4.883,-87.402,48.340,-157.227,0
1667247901.089,-19.531,-52.734,70.801,-168.457,0
1667247901.093,-88.867,-33.691,81.543,-158.203,0
1667247901.097,-84.961,-32.715,73.730,-151.855,0
1667247901.100,-7.812,-33.691,67.871,-152.832,0
1667247901.104,12.695,-50.293,57.617,-156.250,0
1667247901.108,-74.219,-83.008,36.133,-187.988,0
1667247901.112,-125.000,-105.957,10.742,-224.609,0
1667247901.116,-93.750,-107.910,-3.418,-205.078,0
1667247901.135,-61.523,-117.676,-1.953,-190.430,0
1667247901.139,-108.887,-127.441,-2.930,-223.145,0
1667247901.143,-170.410,-123.535,-12.695,-243.652,0
1667247901.147,-136.230,-122.070,-24.414,-255.371,0
1667247901.151,-60.059,-126.953,-35.156,-234.375,0
1667247901.155,-86.914,-138.672,-26.367,-248.047,0
1667247901.159,-164.062,-147.949,-22.461,-271.484,0
1667247901.162,-155.762,-155.762,-29.785,-252.441,0
1667247901.166,-90.820,-151.855,-26.367,-241.211,0
1667247901.170,-87.402,-155.273,-20.508,-240.234,0
1667247901.174,-175.781,-172.363,-29.297,-262.207,0
1667247901.178,-181.641,-172.852,-29.785,-272.461,0
1667247901.180,-111.328,-156.250,-23.926,-233.398,0
1667247901.184,-97.656,-155.762,-16.113,-235.840,0
1667247901.188,-146.484,-156.738,-6.348,-224.121,0
1667247901.192,-208.984,-161.133,-4.395,-244.629,0
1667247901.196,-154.785,-166.504,4.883,-252.441,0
1667247901.200,-79.102,-170.898,4.883,-217.773,0
1667247901.204,-146.973,-177.246,-13.184,-245.605,0
1667247901.207,-214.844,-193.848,-19.531,-266.602,0
1667247901.211,-176.270,-206.055,-20.020,-244.629,0
1667247901.215,-118.652,-207.520,-29.785,-235.840,0
1667247901.219,-138.184,-206.055,-38.574,-258.789,0
1667247901.223,-206.055,-203.613,-38.086,-273.926,0
1667247901.225,-195.801,-206.543,-33.203,-269.043,0
1667247901.229,-118.652,-202.637,-36.133,-251.953,0
1667247901.233,-116.699,-200.195,-34.668,-242.188,0
1667247901.237,-182.129,-192.383,-30.273,-257.324,0
1667247901.241,-192.871,-185.547,-33.691,-253.418,0
1667247901.245,-139.160,-177.246,-31.250,-242.188,0
1667247901.249,-100.098,-170.898,-33.203,-232.910,0
1667247901.252,-164.551,-177.246,-36.133,-248.047,0
1667247901.256,-212.891,-185.547,-30.762,-262.695,0
1667247901.260,-154.297,-183.105,-37.109,-250.977,0
1667247901.264,-84.473,-176.758,-47.363,-247.070,0
1667247901.268,-112.793,-186.035,-54.199,-265.137,0
1667247901.270,-198.730,-201.172,-59.570,-265.137,0
1667247901.274,-181.152,-201.172,-62.988,-219.238,0
1667247901.278,-100.586,-191.895,-62.988,-229.492,0
1667247901.282,-110.840,-190.918,-59.082,-237.793,0
1667247901.286,-181.641,-188.965,-50.293,-248.047,0
1667247901.290,-166.992,-187.500,-40.527,-252.441,0
1667247901.294,-82.031,-184.570,-38.574,-228.516,0
1667247901.297,-94.727,-190.430,-38.086,-221.680,0
1667247901.301,-192.383,-208.984,-48.828,-238.281,0
1667247901.305,-232.910,-227.051,-71.777,-289.062,0
1667247901.309,-180.664,-240.234,-84.961,-276.855,0
1667247901.313,-131.348,-249.023,-92.285,-267.090,0
1667247901.314,-197.754,-241.211,-94.727,-298.828,0
1667247901.318,-264.648,-230.469,-93.262,-274.414,0
1667247901.322,-202.637,-232.910,-93.750,-267.578,0
1667247901.326,-132.324,-227.051,-91.309,-264.160,0
1667247901.330,-165.527,-222.168,-92.773,-267.090,0
1667247901.334,-233.887,-213.867,-92.285,-290.039,0
1667247901.338,-228.027,-217.285,-94.238,-287.598,0
1667247901.341,-174.805,-259.277,-117.188,-286.133,0
1667247901.345,-218.262,-296.387,-148.438,-333.008,0
1667247901.349,-309.082,-303.223,-158.691,-385.254,0
1667247901.353,-300.781,-310.059,-162.109,-367.676,0
1667247901.357,-240.234,-312.988,-162.109,-332.520,0
1667247901.358,-218.750,-304.199,-163.574,-338.867,0
1667247901.362,-267.578,-280.273,-159.180,-365.723,0
1667247901.366,-318.359,-238.770,-145.020,-333.008,0
1667247901.370,-261.230,-204.590,-146.973,-312.988,0
1667247901.374,-193.359,-193.359,-146.973,-327.637,0
1667247901.378,-227.539,-177.734,-135.742,-332.031,0
1667247901.382,-274.902,-171.875,-130.859,-314.453,0
1667247901.385,-227.539,-186.035,-129.883,-282.715,0
1667247901.389,-169.922,-188.965,-132.324,-282.715,0
1667247901.393,-206.543,-193.359,-129.883,-304.688,0
1667247901.397,-280.273,-203.613,-125.488,-326.660,0
1667247901.401,-258.301,-203.613,-129.395,-312.988,0
1667247901.403,-190.430,-205.566,-134.766,-287.109,0
1667247901.407,-189.453,-197.266,-132.324,-293.945,0
1667247901.411,-256.836,-191.895,-129.395,-304.199,0
1667247901.415,-283.691,-193.359,-133.789,-289.062,0
1667247901.419,-228.027,-205.566,-139.160,-302.734,0
1667247901.423,-191.895,-223.145,-145.020,-320.312,0
1667247901.427,-240.723,-230.469,-139.160,-302.246,0
1667247901.430,-293.945,-239.746,-138.184,-306.641,0
1667247901.434,-229.492,-267.090,-142.090,-327.148,0
1667247901.438,-171.875,-303.711,-137.207,-296.387,0
1667247901.442,-209.961,-325.195,-132.812,-298.340,0
1667247901.446,-268.066,-333.984,-125.488,-311.523,0
1667247901.449,-223.633,-340.332,-120.605,-286.621,0
1667247901.453,-160.645,-352.051,-113.281,-253.418,0
1667247901.457,-193.848,-343.262,-110.840,-271.973,0
1667247901.461,-257.324,-324.707,-113.770,-302.246,0
1667247901.465,-236.328,-314.941,-118.164,-304.199,0
1667247901.469,-156.738,-312.988,-122.559,-298.340,0
1667247901.473,-149.902,-298.340,-107.422,-250.977,0
1667247901.476,-196.777,-263.672,-94.727,-256.348,0
1667247901.480,-208.496,-252.441,-96.680,-267.578,0
1667247901.484,-155.273,-259.766,-100.098,-241.211,0
1667247901.488,-149.414,-265.137,-99.121,-242.676,0
1667247901.492,-202.148,-265.625,-99.609,-275.879,0
1667247901.509,-240.723,-264.648,-103.516,-289.062,0
1667247901.513,-194.336,-251.953,-96.680,-289.062,0
1667247901.517,-132.812,-235.352,-85.938,-251.953,0
1667247901.521,-160.645,-229.980,-88.867,-238.281,0
1667247901.525,-231.934,-229.492,-97.168,-295.410,0
1667247901.529,-219.238,-228.027,-102.539,-293.457,0
1667247901.533,-151.367,-225.586,-104.492,-271.484,0
1667247901.536,-150.879,-226.074,-97.168,-292.480,0
1667247901.540,-218.262,-227.539,-94.238,-303.711,0
1667247901.544,-227.539,-222.656,-91.309,-293.945,0
1667247901.548,-166.992,-212.891,-90.820,-270.996,0
1667247901.552,-145.996,-212.891,-89.844,-263.672,0
1667247901.556,-208.008,-207.520,-91.309,-284.668,0
1667247901.560,-250.000,-205.566,-104.492,-282.227,0
1667247901.564,-203.125,-204.590,-99.609,-249.023,0
1667247901.568,-132.324,-164.062,-62.988,-241.699,0
1667247901.572,-139.160,-117.188,-18.555,-222.168,0
1667247901.576,-168.945,-85.449,3.906,-194.336,0
1667247901.580,-108.398,-85.938,1.465,-155.762,0
1667247901.583,-43.457,-89.355,0.000,-157.227,0
1667247901.587,-64.453,-74.707,-0.977,-175.781,0
1667247901.591,-137.695,-75.195,0.000,-177.734,0
1667247901.595,-139.648,-79.590,-5.859,-169.922,0
1667247901.599,-71.289,-69.824,-23.438,-163.086,0
1667247901.599,-92.285,-68.359,-34.180,-176.758,0
1667247901.603,-182.129,-66.406,-60.059,-226.562,0
1667247901.607,-192.871,-66.895,-78.613,-246.582,0
1667247901.611,-99.121,-68.359,-71.777,-220.215,0
1667247901.615,-96.191,-67.871,-84.473,-241.699,0
1667247901.619,-185.547,-78.613,-99.609,-280.273,0
1667247901.623,-214.355,-81.055,-99.121,-279.297,0
1667247901.626,-156.250,-70.801,-98.633,-272.461,0
1667247901.630,-98.633,-58.594,-98.145,-258.301,0
1667247901.634,-141.113,-45.898,-101.074,-262.695,0
1667247901.638,-193.848,-43.945,-99.121,-276.367,0
1667247901.642,-144.531,-42.969,-95.215,-248.047,0
1667247901.644,-71.777,-29.297,-96.680,-234.375,0
1667247901.648,-68.848,3.418,-77.637,-218.750,0
1667247901.652,-95.215,44.434,-36.621,-185.059,0
1667247901.656,-79.102,42.969,-32.715,-171.387,0
1667247901.660,-21.484,27.344,-47.363,-192.871,0
1667247901.664,-16.602,11.719,-46.875,-206.055,0
1667247901.668,-100.098,-22.949,-54.688,-217.773,0
1667247901.671,-132.324,-54.688,-70.312,-219.727,0
1667247901.675,-95.703,-71.289,-88.379,-216.309,0
1667247901.679,-84.961,-91.797,-105.469,-235.840,0
1667247901.683,-139.160,-105.957,-108.887,-252.930,0
1667247901.687,-211.914,-104.492,-111.816,-249.023,0
1667247901.689,-189.941,-117.188,-124.512,-244.141,0
1667247901.693,-123.535,-124.512,-126.465,-250.000,0
1667247901.697,-161.621,-119.629,-116.211,-268.066,0
1667247901.701,-230.957,-116.699,-113.770,-271.484,0
1667247901.705,-190.430,-100.586,-117.676,-233.398,0
1667247901.709,-129.883,-102.051,-120.117,-228.516,0
1667247901.713,-149.414,-109.863,-115.723,-284.180,0
1667247901.716,-211.426,-108.887,-108.398,-270.508,0
1667247901.720,-209.961,-112.305,-124.512,-257.812,0
1667247901.724,-120.117,-111.816,-124.512,-252.441,0
1667247901.728,-86.426,-92.285,-83.496,-213.379,0
1667247901.732,-132.812,-78.125,-61.523,-220.703,0
1667247901.734,-151.367,-82.031,-70.801,-214.355,0
1667247901.738,-104.492,-83.496,-78.613,-188.477,0
1667247901.742,-64.453,-84.473,-75.684,-188.477,0
1667247901.746,-108.887,-79.102,-67.383,-199.219,0
1667247901.750,-145.020,-76.172,-51.758,-198.242,0
1667247901.754,-88.379,-78.125,-49.316,-188.477,0
1667247901.758,-43.457,-83.496,-56.152,-177.734,0
1667247901.761,-75.684,-74.219,-59.082,-198.730,0
1667247901.765,-144.043,-63.477,-62.500,-247.559,0
1667247901.769,-149.414,-70.801,-59.082,-242.188,0
1667247901.773,-78.613,-77.148,-57.617,-190.918,0
1667247901.777,-90.820,-79.102,-64.453,-225.586,0
1667247901.779,-151.367,-73.730,-62.988,-253.906,0
1667247901.783,-157.715,-74.707,-56.641,-227.051,0
1667247901.787,-108.398,-77.637,-50.293,-199.219,0
1667247901.791,-63.477,-75.195,-37.598,-186.523,0
1667247901.795,-129.883,-79.102,-39.062,-225.586,0
1667247901.799,-187.988,-84.473,-41.992,-241.699,0
1667247901.803,-122.559,-92.285,-46.387,-211.914,0
1667247901.806,-83.496,-95.703,-69.336,-210.449,0
1667247901.810,-137.207,-92.773,-77.637,-216.797,0
1667247901.814,-196.289,-85.938,-73.730,-220.215,0
1667247901.818,-157.715,-82.031,-73.730,-241.211,0
1667247901.822,-89.355,-80.078,-69.824,-216.797,0
1667247901.824,-113.770,-77.148,-71.777,-210.449,0
1667247901.828,-177.246,-84.961,-72.266,-264.648,0
1667247901.832,-162.598,-91.309,-68.848,-250.977,0
1667247901.836,-95.215,-91.797,-63.965,-212.402,0
1667247901.840,-92.773,-93.262,-62.012,-232.910,0
1667247901.844,-171.875,-96.191,-56.641,-238.770,0
1667247901.848,-194.336,-90.332,-64.453,-225.586,0
1667247901.851,-119.141,-90.820,-75.195,-213.867,0
1667247901.855,-93.262,-97.168,-67.383,-190.430,0
1667247901.859,-162.109,-96.191,-64.941,-219.727,0
1667247901.863,-229.004,-112.793,-83.496,-273.926,0
1667247901.867,-195.801,-138.184,-99.609,-268.066,0
1667247901.884,-138.672,-143.066,-101.074,-268.555,0
1667247901.888,-188.477,-142.578,-105.469,-284.180,0
1667247901.892,-251.465,-141.113,-128.418,-311.035,0
1667247901.896,-214.844,-131.348,-131.836,-289.551,0
1667247901.900,-148.438,-122.559,-122.559,-260.742,0
1667247901.904,-163.574,-126.465,-120.117,-290.527,0
1667247901.908,-241.699,-128.906,-120.605,-314.941,0
1667247901.911,-234.863,-125.977,-115.234,-299.316,0
1667247901.915,-143.555,-126.465,-98.633,-263.184,0
1667247901.919,-124.023,-122.559,-95.703,-244.629,0
1667247901.923,-220.703,-117.676,-97.656,-270.020,0
1667247901.927,-240.723,-124.512,-90.332,-277.344,0
1667247901.929,-144.531,-119.141,-88.867,-249.512,0
1667247901.933,-120.605,-97.656,-89.844,-250.000,0
1667247901.937,-194.336,-81.543,-92.285,-270.996,0
1667247901.941,-225.586,-75.684,-89.844,-295.410,0
1667247901.945,-170.898,-73.730,-87.891,-262.207,0
1667247901.949,-110.352,-56.641,-76.660,-228.516,0
1667247901.953,-94.238,-33.691,-57.129,-234.375,0
1667247901.956,-142.578,-19.531,-37.598,-244.629,0
1667247901.960,-117.188,-6.836,-24.902,-218.262,0
1667247901.964,-39.551,8.789,-18.066,-181.152,0
1667247901.968,-62.500,12.207,-14.160,-181.641,0
1667247901.972,-122.070,10.742,-12.207,-207.520,0
1667247901.974,-107.910,8.789,-1.465,-203.613,0
1667247901.978,-25.391,11.230,0.977,-175.781,0
1667247901.982,-6.836,11.719,-5.859,-171.875,0
1667247901.986,-83.984,5.859,-5.371,-186.523,0
1667247901.990,-95.703,21.484,14.648,-170.410,0
1667247901.994,-13.184,32.227,22.461,-135.254,0
1667247901.998,11.230,37.109,16.602,-122.070,0
1667247902.001,-46.387,41.016,15.137,-177.734,0
1667247902.005,-104.004,35.156,7.324,-197.754,0
1667247902.009,-62.500,22.949,-4.883,-181.641,0
1667247902.013,0.488,14.160,0.000,-163.574,0
1667247902.017,-30.762,19.043,9.766,-148.926,0
1667247902.019,-104.492,9.277,-1.465,-185.059,0
1667247902.023,-103.516,-11.230,-21.484,-195.312,0
1667247902.027,-50.293,-29.785,-36.621,-181.641,0
1667247902.031,-54.688,-36.621,-44.434,-199.219,0
1667247902.035,-139.648,-51.758,-49.316,-221.191,0
1667247902.039,-154.785,-62.012,-41.504,-224.609,0
1667247902.043,-73.242,-60.059,-38.086,-205.078,0
1667247902.046,-64.453,-67.383,-52.246,-203.613,0
1667247902.050,-141.113,-75.684,-59.082,-227.539,0
1667247902.054,-196.289,-69.824,-71.777,-247.559,0
1667247902.058,-126.465,-72.266,-80.078,-224.609,0
1667247902.062,-77.637,-83.984,-75.195,-220.215,0
1667247902.063,-153.809,-90.332,-82.520,-250.977,0
1667247902.067,-209.473,-98.145,-99.121,-272.461,0
1667247902.071,-185.547,-112.305,-105.469,-274.414,0
1667247902.075,-125.000,-106.445,-97.656,-255.371,0
1667247902.079,-136.230,-85.938,-85.938,-257.324,0
1667247902.083,-197.754,-80.566,-84.961,-277.344,0
1667247902.087,-194.824,-84.961,-87.402,-265.625,0
1667247902.090,-129.883,-86.914,-80.566,-236.328,0
1667247902.094,-130.859,-83.984,-79.590,-256.348,0
1667247902.098,-209.961,-86.426,-86.426,-302.246,0
1667247902.102,-235.840,-87.891,-90.820,-307.129,0
1667247902.106,-181.641,-86.914,-86.426,-296.387,0
1667247902.108,-164.062,-81.543,-66.895,-291.504,0
1667247902.112,-233.887,-83.496,-62.012,-312.988,0
1667247902.116,-291.016,-80.566,-57.617,-315.430,0
1667247902.120,-228.516,-75.684,-36.133,-291.992,0
1667247902.124,-179.688,-85.938,-30.273,-318.359,0
1667247902.128,-251.953,-101.074,-50.293,-359.375,0
1667247902.132,-334.961,-109.375,-67.871,-395.020,0
1667247902.135,-341.797,-134.277,-82.031,-415.039,0
1667247902.139,-300.293,-148.926,-97.168,-414.551,0
1667247902.143,-325.195,-145.020,-94.727,-435.059,0
1667247902.147,-393.066,-140.625,-90.332,-452.637,0
1667247902.151,-385.742,-135.254,-95.703,-438.477,0
1667247902.154,-312.500,-137.207,-90.332,-438.477,0
1667247902.158,-270.508,-139.160,-77.637,-429.688,0
1667247902.162,-342.773,-142.090,-80.078,-419.434,0
1667247902.166,-373.047,-139.648,-83.496,-438.965,0
1667247902.170,-241.699,-103.027,-35.156,-386.230,0
1667247902.174,-182.617,-88.379,-7.812,-308.105,0
1667247902.178,-250.977,-99.121,-20.996,-337.402,0
1667247902.181,-262.695,-92.773,-26.367,-355.957,0
1667247902.185,-197.754,-100.586,-27.344,-293.457,0
1667247902.189,-155.273,-121.094,-24.414,-273.926,0
1667247902.193,-198.242,-144.043,-36.621,-311.035,0
1667247902.197,-246.582,-154.297,-44.922,-299.805,0
1667247902.199,-212.891,-157.715,-43.457,-290.527,0
1667247902.203,-142.578,-149.902,-46.875,-268.555,0
1667247902.207,-133.789,-143.555,-58.594,-265.137,0
1667247902.211,-202.148,-149.902,-63.477,-270.508,0
1667247902.215,-204.590,-147.461,-63.477,-252.441,0
1667247902.219,-117.188,-141.602,-63.477,-239.746,0
1667247902.223,-98.145,-139.648,-64.453,-219.238,0
1667247902.226,-173.828,-149.414,-73.730,-228.027,0
1667247902.230,-193.359,-158.203,-75.684,-234.863,0
1667247902.234,-109.375,-153.320,-72.266,-202.637,0
1667247902.238,-64.453,-156.250,-75.684,-177.734,0
1667247902.242,-123.047,-161.621,-84.473,-194.336,0
1667247902.260,-159.668,-154.297,-85.449,-185.547,0
1667247902.264,-108.887,-155.762,-78.125,-148.926,0
1667247902.268,-52.246,-145.508,-76.660,-160.645,0
1667247902.272,-87.402,-141.602,-80.078,-188.965,0
1667247902.276,-155.273,-149.414,-79.102,-201.660,0
1667247902.280,-115.723,-149.414,-76.660,-187.988,0
1667247902.284,-41.992,-150.391,-79.102,-172.363,0
1667247902.287,-57.129,-150.391,-78.125,-185.059,0
1667247902.291,-132.812,-153.320,-72.754,-200.684,0
1667247902.295,-136.230,-154.297,-70.312,-187.988,0
1667247902.299,-65.918,-149.414,-81.055,-168.945,0
1667247902.303,-46.387,-145.996,-83.008,-191.406,0
1667247902.303,-108.398,-137.207,-71.777,-196.777,0
1667247902.307,-152.832,-131.348,-71.777,-201.172,0
1667247902.311,-88.867,-125.977,-70.312,-189.941,0
1667247902.315,-22.461,-119.141,-65.430,-184.570,0
1667247902.319,-87.891,-121.094,-69.336,-198.242,0
1667247902.323,-150.879,-116.699,-67.871,-186.035,0
1667247902.327,-118.164,-116.699,-62.988,-180.176,0
1667247902.330,-59.082,-128.418,-65.430,-186.523,0
1667247902.334,-62.988,-126.465,-52.734,-195.312,0
1667247902.338,-122.559,-112.305,-39.551,-208.496,0
1667247902.342,-134.277,-105.957,-49.805,-217.285,0
1667247902.346,-73.730,-108.887,-58.594,-202.637,0
1667247902.348,-43.457,-106.445,-56.641,-207.520,0
1667247902.352,-113.281,-106.445,-58.594,-236.328,0
1667247902.356,-158.203,-110.840,-62.500,-241.699,0
1667247902.360,-90.332,-113.770,-54.688,-199.707,0
1667247902.364,-54.199,-113.770,-47.852,-196.777,0
1667247902.368,-122.559,-112.793,-52.734,-240.723,0
1667247902.372,-177.734,-104.980,-49.316,-247.070,0
1667247902.375,-115.723,-102.051,-44.922,-220.215,0
1667247902.379,-55.664,-108.887,-44.434,-185.059,0
1667247902.383,-91.797,-110.352,-49.805,-208.008,0
1667247902.387,-141.602,-108.398,-48.340,-244.141,0
1667247902.391,-122.070,-113.770,-40.527,-207.520,0
1667247902.394,-60.547,-118.164,-41.992,-213.867,0
1667247902.398,-89.355,-121.582,-45.898,-247.070,0
1667247902.402,-164.062,-125.488,-41.992,-251.953,0
1667247902.406,-153.320,-125.488,-37.598,-238.770,0
1667247902.410,-84.473,-123.535,-46.387,-222.656,0
1667247902.414,-55.664,-117.188,-49.316,-210.938,0
1667247902.418,-121.582,-111.816,-40.527,-226.562,0
1667247902.421,-149.414,-109.863,-36.133,-240.723,0
1667247902.425,-76.172,-116.211,-34.668,-194.824,0
1667247902.429,-47.852,-129.883,-39.062,-200.684,0
1667247902.433,-113.770,-134.277,-40.039,-220.703,0
1667247902.437,-157.715,-135.742,-43.457,-243.164,0
1667247902.439,-119.629,-138.672,-45.898,-240.234,0
1667247902.443,-75.684,-129.883,-42.969,-229.004,0
1667247902.447,-109.375,-114.746,-38.574,-267.578,0
1667247902.451,-171.875,-102.051,-29.297,-268.066,0
1667247902.455,-134.277,-101.074,-26.855,-237.793,0
1667247902.459,-55.176,-100.098,-23.438,-229.004,0
1667247902.463,-69.336,-91.797,-20.508,-236.816,0
1667247902.466,-136.719,-89.355,-13.184,-242.188,0
1667247902.470,-146.484,-90.332,-14.648,-229.980,0
1667247902.474,-87.891,-84.473,-19.531,-215.332,0
1667247902.478,-56.641,-80.566,-12.207,-202.148,0
1667247902.482,-125.000,-83.496,-6.836,-233.887,0
1667247902.484,-167.480,-82.031,-7.812,-253.906,0
1667247902.488,-97.168,-72.754,-10.254,-225.098,0
1667247902.492,-57.129,-73.730,-19.531,-226.562,0
1667247902.496,-125.488,-91.797,-30.762,-270.020,0
1667247902.500,-185.059,-102.539,-39.551,-288.086,0
1667247902.504,-145.996,-109.863,-47.363,-263.184,0
1667247902.508,-89.355,-115.723,-42.480,-241.699,0
1667247902.511,-121.094,-117.676,-45.410,-265.625,0
1667247902.515,-182.617,-108.398,-45.410,-303.223,0
1667247902.519,-154.785,-91.797,-33.691,-280.762,0
1667247902.523,-74.219,-89.844,-38.574,-228.516,0
1667247902.527,-90.332,-102.051,-50.293,-257.324,0
1667247902.527,-196.777,-110.840,-60.547,-305.664,0
1667247902.531,-202.637,-109.863,-66.895,-293.945,0
1667247902.535,-121.094,-104.980,-67.871,-282.227,0
1667247902.539,-97.168,-104.980,-55.176,-270.996,0
1667247902.543,-184.570,-109.375,-42.969,-275.391,0
1667247902.547,-245.605,-107.910,-53.223,-323.242,0
1667247902.551,-167.969,-116.211,-55.664,-284.668,0
1667247902.554,-124.023,-115.723,-52.734,-253.906,0
1667247902.558,-168.945,-111.816,-54.688,-303.223,0
1667247902.562,-206.055,-111.328,-56.641,-307.129,0
1667247902.566,-168.945,-101.562,-60.059,-275.879,0
1667247902.570,-107.422,-101.562,-61.035,-237.793,0
1667247902.572,-136.230,-104.492,-58.105,-268.066,0
1667247902.576,-202.148,-96.680,-53.711,-286.621,0
1667247902.580,-205.566,-95.215,-59.570,-276.855,0
1667247902.584,-137.695,-101.562,-60.547,-298.340,0
1667247902.588,-130.859,-103.516,-57.617,-279.297,0
1667247902.592,-209.961,-100.586,-64.941,-300.781,0
1667247902.596,-206.543,-97.656,-70.801,-311.523,0
1667247902.599,-164.551,-103.516,-78.613,-279.297,0
1667247902.603,-157.227,-111.816,-86.914,-279.785,0
1667247902.607,-193.359,-99.609,-87.891,-313.477,0
1667247902.611,-236.816,-91.309,-91.309,-311.523,0
1667247902.615,-184.082,-87.891,-91.309,-273.926,0
1667247902.632,-110.840,-85.938,-85.449,-277.832,0
1667247902.636,-142.578,-86.426,-82.031,-272.461,0
1667247902.640,-212.891,-83.984,-86.426,-278.809,0
1667247902.644,-183.105,-89.355,-83.984,-304.199,0
1667247902.648,-108.887,-91.309,-76.172,-275.391,0
1667247902.652,-132.324,-81.055,-75.195,-273.926,0
1667247902.656,-205.078,-68.359,-81.543,-299.316,0
1667247902.659,-218.750,-77.148,-93.262,-304.688,0
1667247902.663,-160.156,-77.148,-103.516,-289.551,0
1667247902.667,-129.395,-68.848,-104.492,-269.531,0
1667247902.671,-184.570,-55.176,-100.586,-299.316,0
1667247902.675,-209.961,-41.992,-96.680,-308.594,0
1667247902.678,-143.066,-38.086,-92.773,-262.695,0
1667247902.682,-92.773,-28.809,-82.031,-260.742,0
1667247902.686,-158.691,-28.320,-81.055,-276.855,0
1667247902.690,-217.773,-22.949,-86.914,-287.598,0
1667247902.694,-162.109,-3.906,-73.730,-266.602,0
1667247902.698,-95.703,6.836,-59.082,-222.656,0
1667247902.702,-108.398,12.207,-58.594,-253.418,0
1667247902.705,-172.363,25.391,-52.734,-269.531,0
1667247902.709,-135.742,36.621,-39.551,-226.562,0
1667247902.713,-71.777,32.715,-41.016,-189.941,0
1667247902.717,-93.262,29.785,-46.387,-217.773,90
1667247902.721,-163.086,29.785,-47.363,-247.070,0
1667247902.723,-167.480,26.367,-48.828,-230.957,0
1667247902.727,-91.797,29.785,-53.223,-208.496,0
1667247902.731,-57.129,24.414,-57.617,-216.797,0
1667247902.735,-136.719,21.973,-49.316,-229.980,0
1667247902.739,-184.570,31.738,-40.039,-192.383,0
1667247902.743,-102.539,32.715,-34.180,-198.730,0
1667247902.747,-52.246,32.227,-34.180,-206.543,0
1667247902.750,-112.305,35.645,-29.785,-198.730,0
1667247902.754,-148.438,41.504,-19.531,-206.543,0
1667247902.758,-104.980,40.039,-25.391,-217.285,0
1667247902.762,-62.012,21.973,-41.992,-211.914,0
1667247902.766,-97.656,8.789,-46.875,-212.402,0
1667247902.769,-157.715,8.789,-41.504,-230.957,0
1667247902.773,-139.160,12.207,-40.527,-226.074,0
1667247902.777,-76.172,8.301,-39.062,-205.566,0
1667247902.781,-71.777,-4.395,-40.039,-222.656,0
1667247902.785,-145.996,-3.418,-41.016,-238.281,0
1667247902.789,-173.828,0.977,-36.133,-202.148,0
1667247902.793,-97.656,0.000,-38.574,-217.285,0
1667247902.796,-82.031,-2.930,-35.645,-216.309,0
1667247902.800,-151.367,-16.602,-24.902,-219.238,0
1667247902.804,-170.410,-20.020,-26.855,-264.160,0
1667247902.808,-119.141,-17.090,-21.973,-222.656,0
1667247902.812,-70.801,-17.578,-15.137,-190.918,0
1667247902.814,-108.398,-18.555,-23.438,-212.402,0
1667247902.818,-179.688,-21.484,-37.109,-240.234,0
1667247902.822,-148.926,-20.996,-41.016,-228.027,0
1667247902.826,-75.684,-17.578,-41.016,-193.359,0
1667247902.830,-84.473,-17.090,-43.457,-207.031,0
1667247902.834,-137.207,-15.137,-37.109,-232.422,0
1667247902.838,-132.324,-16.113,-27.344,-212.402,0
1667247902.841,-75.684,-18.555,-23.438,-203.613,0
1667247902.845,-66.406,-20.020,-35.156,-219.238,0
1667247902.849,-145.508,-34.180,-50.781,-233.398,0
1667247902.853,-181.641,-46.387,-49.805,-246.094,0
1667247902.857,-127.441,-51.758,-48.828,-235.840,0
1667247902.858,-100.586,-60.547,-47.363,-220.215,0
1667247902.862,-144.043,-60.059,-46.875,-239.258,0
1667247902.866,-178.223,-49.805,-48.828,-243.164,0
1667247902.870,-130.859,-49.805,-41.992,-216.309,0
1667247902.874,-74.219,-59.082,-32.715,-205.566,0
1667247902.878,-107.422,-54.688,-35.645,-223.145,0
1667247902.882,-168.945,-50.293,-36.621,-242.188,0
1667247902.885,-153.809,-48.828,-33.691,-226.562,0
1667247902.889,-90.332,-53.223,-38.086,-218.750,0
1667247902.893,-83.008,-41.992,-16.113,-223.145,0
1667247902.897,-133.789,-29.297,-2.930,-192.871,0
1667247902.901,-124.023,-27.832,-10.254,-216.309,0
1667247902.903,-66.406,-29.297,-12.207,-221.680,0
1667247902.907,-52.734,-26.855,-10.254,-176.270,0
1667247902.911,-108.398,-27.344,-1.953,-158.691,0
1667247902.915,-157.227,-27.832,-5.371,-206.055,0
1667247902.919,-106.934,-29.297,-13.672,-207.031,0
1667247902.923,-54.688,-39.062,-14.648,-190.430,0
1667247902.927,-101.562,-45.410,-20.508,-226.074,0
1667247902.930,-167.969,-42.969,-36.621,-238.281,0
1667247902.934,-125.977,-45.410,-45.898,-205.078,0
1667247902.938,-51.758,-52.246,-38.574,-200.684,0
1667247902.942,-72.754,-50.781,-34.668,-229.492,0
1667247902.946,-171.387,-53.711,-38.574,-245.605,0
1667247902.948,-163.574,-63.965,-42.969,-247.559,0
1667247902.952,-75.684,-63.477,-42.969,-229.492,0
1667247902.956,-82.031,-64.453,-46.387,-240.234,0
1667247902.960,-154.297,-72.266,-51.270,-264.648,0
1667247902.964,-149.902,-77.637,-53.223,-252.441,0
1667247902.968,-84.961,-72.266,-46.387,-210.938,0
1667247902.972,-72.266,-62.988,-47.852,-199.707,0
1667247902.975,-132.812,-68.848,-56.641,-255.371,0
1667247902.979,-170.410,-75.195,-52.734,-270.020,0
1667247902.983,-124.023,-68.359,-48.828,-246.094,0
1667247902.987,-81.543,-72.266,-49.316,-211.426,0
1667247902.991,-122.559,-85.938,-55.664,-250.977,0
1667247903.008,-176.270,-93.750,-57.129,-297.852,0
1667247903.012,-136.719,-89.844,-50.781,-261.230,0
1667247903.016,-74.707,-75.195,-55.176,-233.887,0
1667247903.020,-140.137,-86.426,-69.336,-250.977,0
1667247903.024,-221.191,-98.145,-74.219,-276.367,0
1667247903.028,-188.965,-100.586,-74.219,-269.531,0
1667247903.032,-110.352,-101.074,-76.660,-256.836,0
1667247903.035,-118.164,-104.004,-84.961,-285.645,0
1667247903.039,-191.895,-110.840,-86.426,-313.965,0
1667247903.043,-206.543,-105.957,-76.172,-277.344,0
1667247903.047,-133.789,-92.285,-70.801,-242.676,0
1667247903.051,-97.168,-81.055,-66.895,-245.117,0
1667247903.054,-157.227,-85.449,-69.336,-273.926,0
1667247903.058,-205.566,-97.656,-78.125,-290.039,0
1667247903.062,-150.391,-97.656,-71.777,-250.000,0
1667247903.066,-85.449,-93.750,-63.477,-222.168,0
1667247903.070,-113.770,-79.102,-47.363,-247.559,0
1667247903.074,-167.480,-56.641,-42.969,-256.348,0
1667247903.078,-165.039,-52.734,-61.035,-242.676,0
1667247903.081,-82.031,-53.711,-61.523,-242.676,0
1667247903.085,-62.988,-49.805,-41.992,-228.516,0
1667247903.089,-124.023,-28.320,-23.926,-213.379,0
1667247903.093,-127.930,-7.812,-17.578,-204.102,0
1667247903.097,-37.598,-3.906,-16.602,-173.828,0
1667247903.098,-10.254,-12.207,-13.672,-163.574,0
1667247903.102,-78.613,-14.160,-6.348,-166.504,0
1667247903.106,-84.473,0.977,-0.488,-174.805,0
1667247903.110,-32.227,20.508,1.953,-187.012,0
1667247903.114,-2.441,21.973,8.301,-144.043,0
1667247903.118,-41.016,19.043,4.395,-150.391,0
1667247903.122,-105.957,20.508,-5.859,-191.406,0
1667247903.125,-75.684,8.789,-17.090,-192.383,0
1667247903.129,-19.531,6.348,-24.902,-178.711,0
1667247903.133,-63.477,5.371,-28.809,-196.777,0
1667247903.137,-126.953,-9.277,-20.996,-213.379,0
1667247903.141,-81.543,-12.695,-20.020,-187.500,0
1667247903.143,-28.809,-2.441,-18.555,-159.180,0
1667247903.147,-51.270,-2.930,-9.277,-178.711,0
1667247903.151,-115.234,-8.301,-6.348,-193.848,0
1667247903.155,-142.090,-7.324,-14.648,-213.379,0
1667247903.159,-75.684,-6.836,-15.137,-202.637,0
1667247903.163,-51.758,-9.766,-14.648,-179.688,0
1667247903.167,-137.207,-19.531,-23.926,-203.613,0
1667247903.170,-161.621,-13.672,-17.578,-207.520,0
1667247903.174,-76.660,11.230,7.812,-162.598,0
1667247903.178,-6.836,30.762,16.602,-124.023,0
1667247903.182,-63.965,24.414,7.812,-156.738,0
1667247903.186,-124.512,13.672,5.371,-208.984,0
1667247903.190,-100.586,1.953,-2.441,-182.617,0
1667247903.194,-55.664,-17.090,-20.508,-165.039,0
1667247903.198,-70.801,-7.324,-15.625,-183.105,0
1667247903.202,-109.375,28.320,9.277,-190.918,0
1667247903.206,-93.262,47.852,17.578,-175.293,0
1667247903.210,-13.184,58.105,25.879,-119.141,0
1667247903.214,7.812,63.477,42.480,-115.234,0
1667247903.217,-59.082,59.570,44.922,-155.762,0
1667247903.221,-81.055,60.547,44.922,-155.762,0
1667247903.225,-16.113,62.988,48.828,-131.348,0
1667247903.229,17.578,55.176,34.180,-132.324,0
1667247903.233,-46.387,45.898,19.043,-156.250,0
1667247903.235,-114.258,23.438,12.207,-171.875,0
1667247903.239,-84.473,2.930,7.324,-184.570,0
1667247903.243,-37.598,-7.812,-2.930,-182.617,0
1667247903.247,-83.984,-20.508,-13.184,-197.266,0
1667247903.251,-141.602,-33.203,-20.996,-207.520,0
1667247903.255,-116.211,-43.945,-18.066,-198.730,0
1667247903.259,-73.730,-50.293,-35.156,-203.613,0
1667247903.262,-101.562,-53.223,-52.246,-214.844,0
1667247903.266,-170.898,-54.688,-54.688,-222.656,0
1667247903.270,-160.156,-61.035,-62.012,-225.586,0
1667247903.274,-79.102,-57.129,-46.875,-210.938,0
1667247903.278,-41.992,-25.879,-20.508,-199.707,0
1667247903.278,-113.281,-0.977,-10.254,-193.848,0
1667247903.282,-132.812,-1.953,-4.395,-193.359,0
1667247903.286,-58.105,-3.906,7.324,-187.012,0
1667247903.290,-34.180,2.441,5.371,-179.199,0
1667247903.294,-100.586,-6.836,3.418,-208.984,0
1667247903.298,-142.578,-12.207,1.953,-193.359,0
1667247903.302,-62.500,0.000,-2.930,-138.184,0
1667247903.305,-23.926,-2.930,-8.789,-133.789,0
1667247903.309,-96.680,-18.066,-13.672,-170.410,0
1667247903.313,-165.527,-16.113,-12.207,-208.008,0
1667247903.317,-143.066,-2.930,-17.090,-195.801,0
1667247903.321,-74.707,-4.883,-22.949,-185.547,0
1667247903.325,-105.469,-13.184,-15.625,-180.176,0
1667247903.329,-190.430,-22.461,-22.949,-213.867,0
1667247903.333,-175.293,-26.855,-26.855,-228.516,0
1667247903.337,-96.680,-38.574,-28.320,-191.895,0
1667247903.341,-105.469,-42.969,-39.062,-206.055,0
1667247903.345,-197.754,-51.758,-42.969,-233.398,0
1667247903.349,-218.750,-62.500,-50.781,-226.074,0
1667247903.352,-153.809,-53.223,-63.477,-240.234,0
1667247903.356,-108.398,-56.152,-70.312,-244.629,0
1667247903.360,-182.617,-73.730,-62.988,-249.512,0
1667247903.364,-254.883,-76.660,-66.895,-271.973,0
1667247903.368,-225.098,-82.520,-78.613,-255.371,0
1667247903.384,-185.547,-93.750,-77.148,-231.445,0
1667247903.388,-222.168,-94.238,-70.801,-237.305,0
1667247903.392,-285.156,-96.680,-80.566,-268.555,0
1667247903.396,-256.836,-94.238,-88.867,-275.391,0
1667247903.400,-184.570,-91.309,-90.820,-249.512,0
1667247903.404,-197.754,-96.191,-86.914,-241.211,0
1667247903.408,-287.109,-88.867,-93.262,-276.367,0
1667247903.411,-299.805,-80.566,-100.586,-281.250,0
1667247903.415,-211.914,-85.449,-99.121,-240.723,0
1667247903.419,-184.570,-89.844,-100.098,-225.586,0
1667247903.423,-253.906,-83.984,-97.656,-250.488,0
1667247903.427,-281.250,-84.961,-99.121,-261.719,0
1667247903.444,-207.031,-93.750,-101.074,-242.188,0
1667247903.448,-174.316,-95.703,-104.492,-233.398,0
1667247903.452,-231.934,-103.027,-105.469,-254.395,0
1667247903.456,-285.156,-98.145,-103.027,-288.574,0
1667247903.460,-235.352,-94.727,-95.215,-283.691,0
1667247903.464,-160.645,-101.562,-91.309,-238.770,0
1667247903.468,-187.500,-105.469,-98.145,-251.953,0
1667247903.471,-256.836,-113.770,-100.586,-279.785,0
1667247903.475,-254.395,-116.211,-104.980,-275.879,0
1667247903.479,-173.828,-110.840,-108.398,-255.859,0
1667247903.483,-170.898,-112.793,-112.305,-278.809,0
1667247903.487,-241.699,-109.863,-114.258,-297.852,0
1667247903.474,-246.582,-111.816,-104.492,-264.160,0
1667247903.478,-191.406,-129.395,-94.727,-228.516,0
1667247903.482,-173.828,-133.789,-91.797,-257.324,0
1667247903.486,-233.887,-130.859,-82.031,-264.648,0
1667247903.490,-262.207,-132.812,-72.266,-244.629,0
1667247903.494,-200.684,-132.812,-72.754,-231.445,0
1667247903.498,-151.367,-127.441,-67.383,-207.520,0
1667247903.501,-192.871,-124.512,-70.312,-225.586,0
1667247903.505,-241.699,-127.930,-72.266,-244.629,0
1667247903.509,-215.332,-127.441,-63.965,-226.074,0
1667247903.513,-137.207,-125.977,-60.059,-212.891,0
1667247903.517,-140.625,-128.418,-59.082,-209.961,0
1667247903.518,-197.266,-127.930,-59.570,-206.543,0
1667247903.522,-205.566,-126.465,-51.270,-208.496,0
1667247903.526,-158.203,-125.977,-45.410,-188.965,0
1667247903.530,-129.883,-125.488,-56.152,-201.660,0
1667247903.534,-194.824,-124.023,-57.129,-218.750,0
1667247903.538,-225.586,-116.211,-41.504,-226.562,0
1667247903.542,-154.785,-105.957,-32.715,-229.980,0
1667247903.545,-118.164,-100.586,-32.715,-194.336,0
1667247903.549,-185.547,-105.469,-41.504,-197.266,0
1667247903.553,-246.094,-106.934,-47.852,-232.910,0
1667247903.557,-190.430,-112.793,-37.598,-209.961,0
1667247903.561,-132.812,-114.258,-32.227,-179.199,0
1667247903.571,-170.898,-103.516,-35.645,-212.402,0
1667247903.575,-217.773,-97.656,-21.973,-241.699,0
1667247903.579,-187.500,-83.984,-11.230,-218.750,0
1667247903.583,-114.258,-71.777,-4.395,-187.988,0
1667247903.587,-123.047,-82.031,-7.324,-200.684,0
1667247903.591,-200.195,-84.473,-24.902,-225.586,0
1667247903.595,-216.797,-89.844,-24.414,-214.355,0
1667247903.598,-138.672,-88.379,-20.508,-187.500,0
1667247903.602,-144.531,-82.031,-26.855,-169.434,0
1667247903.606,-204.102,-77.637,-27.344,-181.641,0
1667247903.610,-214.844,-76.172,-19.531,-196.777,0
1667247903.614,-172.852,-88.867,-21.973,-153.320,0
1667247903.608,-135.742,-99.609,-21.484,-126.465,0
1667247903.612,-172.363,-101.074,-15.137,-164.062,0
1667247903.616,-212.891,-94.238,-21.484,-197.754,0
1667247903.620,-199.219,-88.867,-18.555,-159.668,0
1667247903.624,-149.902,-70.801,-18.555,-122.559,0
1667247903.628,-171.875,-94.238,-12.207,-131.348,0
1667247903.632,-240.234,-111.816,-8.789,-155.273,0
1667247903.635,-214.844,-90.820,-23.438,-149.414,0
1667247903.639,-138.184,-97.656,-28.809,-131.348,0
1667247903.643,-134.766,-91.797,-26.855,-133.789,0
1667247903.647,-237.305,-55.664,-42.969,-188.477,0
1667247903.651,-260.742,-67.383,-43.457,-189.453,0
1667247903.653,-185.059,-89.355,-24.414,-136.719,0
1667247903.657,-167.969,-89.844,-15.625,-132.812,0
1667247903.661,-205.078,-87.891,-19.531,-157.715,0
1667247903.665,-224.121,-92.285,-22.461,-171.875,0
1667247903.669,-197.266,-89.844,-25.879,-162.109,0
1667247903.673,-169.922,-107.422,-25.879,-134.766,0
1667247903.677,-231.445,-106.934,-26.367,-149.414,0
1667247903.680,-287.598,-83.008,-32.715,-177.246,0
1667247903.684,-304.199,-66.895,-39.551,-178.711,0
1667247903.688,-267.578,-83.984,-33.203,-145.508,0
1667247903.692,-161.133,-108.398,-24.414,-129.395,0
1667247903.696,-225.098,-90.820,-36.621,-160.156,0
1667247903.698,-252.930,-72.266,-43.457,-189.453,0
1667247903.702,-221.191,-94.238,-37.109,-183.105,0
1667247903.706,-256.348,-127.441,-33.203,-167.480,0
1667247903.710,-288.574,-124.023,-36.621,-193.848,0
1667247903.714,-264.648,-103.516,-29.297,-221.680,0
1667247903.718,-175.293,-112.793,-28.320,-197.266,71
1667247903.722,-216.797,-122.559,-27.832,-182.617,0
1667247903.725,-309.082,-122.559,-34.668,-218.262,0
1667247903.729,-281.738,-71.289,-57.617,-247.070,0
1667247903.733,-217.285,-70.312,-63.965,-226.074,0
1667247903.737,-239.258,-116.699,-53.711,-208.008,0
1667247903.741,-404.297,-54.199,-35.156,-241.211,0
1667247903.758,-337.402,-58.105,-27.832,-304.199,0
1667247903.762,-172.363,-82.520,-66.895,-256.836,0
1667247903.766,-72.754,-100.098,-59.082,-165.527,0
1667247903.770,-88.867,-51.758,-29.785,-224.609,0
1667247903.774,-229.004,-30.273,-59.082,-407.715,0
1667247903.778,-235.352,-29.785,-64.453,-298.340,0
1667247903.782,-259.277,37.109,-68.848,-348.145,0
1667247903.785,-77.148,-45.410,-47.852,-315.430,0
1667247903.789,-29.297,-16.602,-15.625,-156.738,0
1667247903.793,-107.422,-31.738,-62.988,-217.773,0
1667247903.797,-110.840,-62.012,-69.824,-281.738,0
1667247903.801,-123.047,-52.246,-41.504,-316.895,0
1667247903.804,-93.750,6.836,-23.926,-158.203,0
1667247903.808,-267.090,95.215,-56.641,-272.949,0
1667247903.812,-342.773,100.098,-52.734,-678.223,0
1667247903.816,-264.160,40.039,-107.910,-407.715,0
1667247903.820,-93.750,8.789,-93.750,-156.250,0
1667247903.824,-51.270,11.719,-57.129,-277.344,0
1667247903.828,20.020,-28.809,-50.293,-171.875,0
1667247903.831,-199.707,76.660,11.230,-218.262,0
1667247903.835,-173.828,65.918,-64.941,-296.875,0
1667247903.839,197.266,-66.406,-80.566,-70.312,0
1667247903.843,148.926,-52.246,-103.027,-51.270,0
1667247903.847,-152.344,92.285,-151.855,-510.742,0
1667247903.849,-246.094,-27.832,-46.387,-497.559,0
1667247903.853,-229.980,-18.555,-2.930,-600.098,0
1667247903.857,-299.805,162.598,-105.469,-832.520,0
1667247903.861,-164.062,110.840,-77.637,-505.859,0
1667247903.865,-142.090,232.910,-184.570,-575.195,0
1667247903.869,-94.727,90.332,-192.871,-396.484,0
1667247903.873,128.418,-99.609,-49.316,-291.016,0
1667247903.876,53.711,90.820,-58.105,-521.973,0
1667247903.880,-48.340,89.844,-34.668,-487.793,0
1667247903.884,69.336,23.438,-152.344,-488.281,0
1667247903.888,-177.246,78.125,-288.574,-554.199,0
1667247903.892,-174.316,27.832,-212.402,-423.340,0
1667247903.895,-64.941,5.859,-176.758,-285.645,0
1667247903.899,-149.902,39.062,-241.211,-552.246,0
1667247903.903,-69.336,-20.996,-184.570,-526.855,0
1667247903.907,-153.320,-29.297,-76.660,-444.336,0
1667247903.911,-73.242,13.184,-135.742,-316.895,0
1667247903.915,-143.555,2.930,-142.090,-369.629,0
1667247903.919,-296.875,-85.938,-213.867,-402.832,0
1667247903.922,-242.188,-60.059,-244.629,-142.578,0
1667247903.926,10.254,-53.711,-307.617,-168.457,0
1667247903.930,-21.973,-61.035,-265.137,-188.965,0
1667247903.934,-192.871,-138.184,-166.992,-40.527,0
1667247903.938,-129.883,-169.434,-192.383,87.402,0
1667247903.939,-221.680,-74.707,-219.238,106.934,0
1667247903.943,-288.574,-98.145,-143.066,-97.656,0
1667247903.947,-251.953,-119.141,-73.730,-194.824,0
1667247903.951,-256.836,-178.223,-184.082,49.805,0
1667247903.955,-287.109,-113.770,-269.043,38.086,0
1667247903.959,-142.090,-193.359,-201.660,70.801,0
1667247903.963,-128.906,-110.840,-256.348,-10.254,0
1667247903.966,-264.648,-125.000,-245.605,121.582,0
1667247903.970,-294.434,-227.051,-147.949,82.520,0
1667247903.974,-251.953,-151.367,-155.273,-10.742,0
1667247903.978,-214.844,-126.953,-191.406,62.500,0
1667247903.982,-178.223,-220.215,-223.633,350.098,0
1667247903.984,-308.594,-131.836,-206.543,418.457,0
1667247903.988,-341.797,-132.324,-195.801,235.352,0
1667247903.992,-213.379,-243.652,-228.516,324.707,0
1667247903.996,-269.043,-209.961,-137.207,286.133,0
1667247904.000,-362.305,-219.727,-188.965,294.922,0
1667247904.004,-286.621,-187.012,-326.172,442.383,0
1667247904.008,-276.855,-250.488,-177.734,419.922,0
1667247904.011,-411.133,-270.508,-85.449,193.848,0
1667247904.015,-433.594,-230.469,-227.539,264.160,0
1667247904.019,-404.297,-296.387,-201.660,469.727,0
1667247904.023,-381.836,-299.316,-84.473,338.379,0
1667247904.027,-413.086,-122.070,-162.598,203.613,0
1667247904.029,-437.500,-140.137,-176.270,280.273,0
1667247904.033,-416.504,-247.559,-134.277,460.449,0
1667247904.037,-322.754,-286.621,-132.812,434.082,0
1667247904.041,-353.027,-240.723,-162.598,335.449,0
1667247904.045,-458.496,-164.062,-113.281,351.074,0
1667247904.049,-561.523,-84.961,-214.355,261.230,0
1667247904.053,-449.707,-187.988,-211.426,190.918,0
1667247904.056,-198.242,-248.535,-195.801,164.551,0
1667247904.060,-247.070,-199.707,-223.145,302.734,0
1667247904.064,-345.703,-200.684,-117.676,410.156,0
1667247904.068,-361.328,-211.914,-121.582,333.496,0
1667247904.072,-333.496,-178.223,-155.762,166.992,0
1667247904.074,-323.730,-170.898,-137.695,194.824,0
1667247904.078,-369.141,-166.504,-155.273,293.945,0
1667247904.082,-272.949,-169.922,-149.902,252.930,0
1667247904.086,-192.383,-184.082,-95.215,354.492,0
1667247904.090,-207.520,-175.781,-98.633,359.863,0
1667247904.094,-243.652,-145.996,-94.727,289.062,0
1667247904.098,-245.605,-120.605,-73.730,322.754,0
1667247904.101,-152.832,-110.352,-65.430,364.746,0
1667247904.105,-145.508,-116.699,-60.059,357.422,0
1667247904.109,-232.910,-118.164,-56.152,297.363,0
1667247904.113,-258.789,-111.816,-52.246,291.504,0
1667247904.117,-187.500,-104.980,-55.176,282.715,0
1667247904.134,-115.723,-111.816,-50.293,275.391,0
1667247904.138,-155.273,-105.957,-41.992,267.090,0
1667247904.142,-224.121,-87.402,-47.852,259.277,0
1667247904.146,-188.477,-74.219,-46.875,268.555,0
1667247904.150,-116.211,-69.824,-34.180,280.762,0
1667247904.154,-127.930,-69.336,-16.113,307.129,0
1667247904.158,-187.988,-55.176,-17.090,291.016,0
1667247904.161,-186.035,-48.828,-16.113,282.227,0
1667247904.165,-96.680,-27.344,17.090,330.566,0
1667247904.169,-46.875,-10.254,42.480,373.047,0
1667247904.173,-121.094,-18.066,27.832,333.496,0
1667247904.177,-176.758,-17.090,18.066,304.688,0
1667247904.179,-123.047,-15.137,24.902,318.359,0
1667247904.183,-62.012,-13.672,30.762,333.496,0
1667247904.187,-104.004,-10.254,26.855,317.871,0
1667247904.191,-181.641,-17.578,21.973,298.828,0
1667247904.195,-141.602,-21.973,23.926,304.199,0
1667247904.199,-78.613,-20.996,20.508,294.922,0
1667247904.203,-108.887,-16.113,19.043,265.137,0
1667247904.206,-170.898,-3.418,29.297,231.934,0
1667247904.210,-166.016,8.301,29.297,223.145,0
1667247904.214,-83.984,-2.441,33.691,235.840,0
1667247904.218,-61.523,-6.836,39.062,214.844,0
1667247904.222,-125.000,1.465,41.016,168.945,0
1667247904.226,-136.230,3.906,47.363,151.855,0
1667247904.230,-69.824,17.090,53.223,123.047,0
1667247904.234,-24.414,32.227,48.828,29.297,0
1667247904.238,-62.012,32.715,49.316,-25.879,0
1667247904.242,-115.723,33.203,60.059,-22.949,0
1667247904.246,-48.828,34.668,66.895,-10.254,0
1667247904.250,2.930,31.250,69.824,18.066,0
1667247904.253,-50.781,30.762,74.219,11.230,0
1667247904.257,-82.031,31.250,86.426,-1.465,0
1667247904.261,-41.016,36.133,89.355,36.621,0
1667247904.265,14.160,41.992,92.285,30.762,0
1667247904.269,2.441,40.527,92.285,5.371,0
1667247904.270,-57.129,41.992,88.867,-8.789,0
1667247904.274,-66.895,55.176,85.449,-16.113,0
1667247904.278,-11.719,57.129,84.473,-13.184,0
1667247904.282,6.836,53.711,88.379,-5.859,0
1667247904.286,-40.527,59.082,97.168,1.465,0
1667247904.290,-71.777,52.246,104.980,-22.949,0
1667247904.294,-23.926,46.875,96.191,-7.324,0
1667247904.297,5.859,45.410,83.984,24.902,0
1667247904.301,-45.898,41.016,86.426,25.391,0
1667247904.305,-100.586,39.062,87.891,-5.371,0
1667247904.309,-57.129,37.598,85.938,-5.371,0
1667247904.313,-4.883,30.762,85.938,20.020,0
1667247904.314,-37.598,30.762,86.426,-7.812,0
1667247904.318,-85.938,38.574,77.637,-32.227,0
1667247904.322,-61.523,43.945,76.660,-9.277,0
1667247904.326,11.719,48.340,83.984,29.785,0
1667247904.330,17.578,65.430,92.773,32.715,0
1667247904.334,-22.949,99.609,122.070,55.176,0
1667247904.338,-17.090,108.887,131.348,45.410,0
1667247904.341,38.086,94.238,125.488,24.414,0
1667247904.345,56.641,83.008,111.328,22.461,0
1667247904.349,3.906,79.102,102.051,-17.090,0
1667247904.353,-46.387,74.707,99.609,-40.527,0
1667247904.357,0.000,69.824,99.121,-31.738,0
1667247904.360,49.805,64.941,97.168,-24.902,0
1667247904.364,6.348,51.758,86.914,-49.805,0
1667247904.368,-64.453,48.340,79.102,-91.797,0
1667247904.372,-36.621,48.828,85.938,-97.656,0
1667247904.376,33.691,43.457,84.473,-70.312,0
1667247904.380,8.789,40.039,76.660,-91.309,0
1667247904.384,-60.547,45.410,75.195,-114.258,0
1667247904.387,-47.852,43.945,65.918,-78.613,0
1667247904.391,5.371,31.738,52.734,-77.148,0
1667247904.395,-14.160,29.297,53.711,-101.562,0
1667247904.399,-90.820,26.855,54.199,-110.352,0
1667247904.403,-113.281,21.484,43.457,-105.469,0
1667247904.404,-58.594,23.438,41.504,-82.520,0
1667247904.408,-38.086,31.738,44.434,-101.074,0
1667247904.412,-96.191,35.156,39.062,-133.301,0
1667247904.416,-145.020,32.715,29.297,-130.371,0
1667247904.420,-98.145,28.809,23.926,-113.281,0
1667247904.424,-32.227,26.855,27.344,-111.816,0
1667247904.428,-67.383,22.949,30.762,-116.699,0
1667247904.431,-148.926,13.184,26.367,-127.930,0
1667247904.435,-128.418,7.812,17.090,-154.297,0
1667247904.439,-62.988,3.906,15.137,-144.043,0
1667247904.443,-69.824,4.883,18.066,-151.367,0
1667247904.447,-122.559,14.160,15.625,-179.688,0
1667247904.449,-133.301,11.719,12.695,-170.898,0
1667247904.453,-78.613,8.789,10.742,-138.672,0
1667247904.457,-57.617,8.789,11.230,-140.137,0
1667247904.461,-139.160,-1.953,3.906,-166.504,0
1667247904.465,-173.828,-1.953,3.418,-158.691,0
1667247904.469,-104.980,-0.977,11.719,-119.141,0
1667247904.473,-77.148,-6.348,8.789,-106.445,0
1667247904.476,-134.277,0.977,0.000,-142.578,0
1667247904.480,-171.875,-1.465,-1.465,-126.953,0
1667247904.484,-129.395,-11.719,-1.953,-119.629,0
1667247904.488,-88.867,-16.602,-8.789,-116.211,0
1667247904.492,-126.465,-21.973,-5.371,-124.512,0
1667247904.509,-174.805,-20.020,-5.859,-131.836,0
1667247904.513,-146.973,-22.461,-1.953,-95.703,0
1667247904.517,-88.379,-22.461,1.465,-88.379,0
1667247904.521,-99.609,-13.672,-18.066,-110.840,0
1667247904.525,-155.273,-16.113,-21.973,-123.047,0
1667247904.529,-170.410,-23.926,-16.113,-105.469,0
1667247904.533,-120.117,-28.320,-15.625,-85.449,0
1667247904.536,-98.145,-22.949,-17.578,-87.402,0
1667247904.540,-149.414,-21.484,-11.719,-99.609,0
1667247904.544,-156.250,-22.461,-2.441,-78.125,0
1667247904.548,-116.211,-13.672,-8.789,-68.848,0
1667247904.552,-79.590,-1.465,-4.395,-68.848,0
1667247904.555,-108.398,-2.930,-2.441,-70.312,0
1667247904.559,-164.062,-12.207,-10.254,-102.539,0
1667247904.563,-117.188,-14.160,-7.812,-87.891,0
1667247904.567,-49.316,-16.113,-1.465,-59.082,0
1667247904.571,-77.637,-19.043,-0.488,-80.078,0
1667247904.575,-140.625,-19.043,1.953,-94.238,0
1667247904.579,-125.488,-16.602,0.000,-81.055,0
1667247904.582,-40.039,-17.090,1.953,-64.453,0
1667247904.586,-41.992,-18.555,8.789,-74.707,0
1667247904.590,-146.973,-18.555,3.418,-107.422,0
1667247904.594,-156.250,-24.902,-2.930,-105.957,0
1667247904.598,-83.008,-32.715,-11.230,-84.961,0
1667247904.600,-54.199,-33.691,-14.648,-72.754,0
1667247904.604,-112.793,-31.250,-2.441,-70.801,0
1667247904.608,-157.715,-26.855,1.465,-79.590,0
1667247904.612,-101.562,-30.273,-6.836,-43.457,0
1667247904.616,-44.922,-36.621,-4.395,-27.832,0
1667247904.620,-72.266,-31.738,2.930,-79.102,0
1667247904.624,-145.508,-26.367,-3.906,-90.820,0
1667247904.627,-115.723,-27.344,-6.836,-63.477,0
1667247904.631,-45.410,-31.250,-2.441,-44.922,0
1667247904.635,-67.871,-29.785,-2.441,-51.270,0
1667247904.639,-145.020,-30.762,-8.789,-75.195,0
1667247904.643,-132.812,-34.180,-11.230,-81.055,0
1667247904.644,-67.871,-29.785,-11.719,-60.547,0
1667247904.648,-83.008,-45.898,-22.461,-73.730,0
1667247904.652,-144.043,-64.941,-25.879,-103.516,0
1667247904.656,-165.039,-57.129,-25.391,-103.027,0
1667247904.660,-112.305,-53.711,-16.602,-75.684,0
1667247904.664,-87.891,-56.152,-12.695,-63.965,0
1667247904.668,-150.879,-41.016,-19.043,-82.520,0
1667247904.671,-193.848,-30.273,-18.066,-79.590,0
1667247904.675,-129.395,-25.391,-11.719,-82.031,0
1667247904.679,-73.730,-12.695,-3.906,-91.309,0
1667247904.683,-109.863,-11.230,1.465,-104.980,0
1667247904.687,-166.016,-8.789,5.859,-108.398,0
1667247904.689,-135.742,-8.301,6.348,-93.750,0
1667247904.693,-56.152,-11.719,2.441,-75.195,0
1667247904.697,-63.965,-7.812,-1.953,-78.125,0
1667247904.701,-125.488,-5.859,4.395,-84.961,0
1667247904.705,-145.996,-2.441,3.418,-84.961,0
1667247904.709,-89.844,-1.465,1.465,-72.754,0
1667247904.713,-60.547,-15.137,7.324,-72.266,0
1667247904.716,-125.000,-23.926,1.953,-94.238,0
1667247904.720,-160.156,-26.367,-3.418,-114.258,0
1667247904.724,-97.168,-26.855,4.883,-96.680,0
1667247904.728,-40.039,-30.762,6.348,-77.148,0
1667247904.732,-78.613,-31.738,4.883,-103.516,0
1667247904.734,-156.738,-26.367,-2.441,-118.164,0
1667247904.738,-126.465,-33.203,-5.859,-121.582,0
1667247904.742,-70.801,-38.574,-7.324,-100.098,0
1667247904.746,-106.445,-33.691,-16.602,-107.422,0
1667247904.750,-155.762,-35.156,-13.184,-126.953,0
1667247904.754,-139.160,-50.293,-4.395,-108.398,0
1667247904.758,-95.703,-62.500,0.488,-101.562,0
1667247904.761,-108.887,-53.223,-6.836,-98.145,0
1667247904.765,-180.664,-46.875,-11.230,-129.883,0
1667247904.769,-183.594,-52.246,-4.883,-131.348,0
1667247904.773,-108.887,-39.062,-6.348,-90.332,0
1667247904.777,-75.195,-25.879,-1.953,-101.562,0
1667247904.780,-125.488,-25.391,6.348,-118.164,0
1667247904.784,-156.250,-24.902,8.301,-105.469,0
1667247904.788,-105.469,-23.438,12.207,-85.449,0
1667247904.792,-66.406,-21.973,6.836,-72.754,0
1667247904.796,-112.305,-24.902,4.883,-94.238,0
1667247904.800,-154.297,-20.020,17.090,-106.934,0
1667247904.804,-116.211,-15.625,26.367,-74.219,0
1667247904.807,-28.320,-6.348,26.855,-52.246,0
1667247904.811,-46.387,-4.883,28.809,-62.500,0
1667247904.815,-134.766,-12.695,32.715,-92.773,0
1667247904.819,-123.047,-10.742,25.391,-91.309,0
1667247904.823,-46.387,-6.348,15.137,-56.152,0
1667247904.824,-41.016,-10.254,12.695,-70.801,0
1667247904.828,-127.930,-14.648,10.742,-118.164,0
1667247904.832,-145.996,-10.254,8.789,-111.328,0
1667247904.836,-61.035,-5.859,8.301,-71.289,0
1667247904.840,-20.508,-8.301,8.301,-65.918,0
1667247904.844,-66.895,-0.488,14.160,-73.242,0
1667247904.848,-108.887,5.859,18.555,-76.172,0
1667247904.851,-64.453,0.000,12.207,-75.684,0
1667247904.855,-9.766,1.953,15.137,-67.383,0
1667247904.859,-69.824,3.418,19.043,-85.938,0
1667247904.863,-141.602,6.348,16.602,-101.074,0
1667247904.867,-106.445,8.789,16.113,-87.891,0
1667247904.883,-41.992,2.930,10.254,-73.730,0
1667247904.887,-63.477,3.906,13.184,-62.988,0
1667247904.891,-138.672,11.719,12.207,-113.770,0
1667247904.895,-136.719,9.766,1.465,-126.465,0
1667247904.899,-56.641,6.836,5.859,-77.637,0
1667247904.903,-44.922,3.906,13.672,-87.402,0
1667247904.907,-135.742,2.930,6.348,-130.371,0
1667247904.910,-157.227,-2.441,-4.883,-128.906,0
1667247904.914,-99.121,-12.695,-4.395,-97.168,0
1667247904.918,-65.430,-14.648,0.000,-83.496,0
1667247904.922,-124.023,-7.324,-8.301,-111.816,0
1667247904.926,-169.434,-5.859,-9.766,-125.488,0
1667247904.928,-111.816,-5.859,-3.906,-92.773,0
1667247904.932,-57.617,-0.488,-3.418,-83.008,0
1667247904.936,-95.215,-5.859,1.465,-129.395,0
1667247904.940,-162.598,-6.836,0.488,-142.578,0
1667247904.944,-158.691,-3.418,-6.836,-115.723,0
1667247904.948,-85.449,-16.602,-1.465,-99.609,0
1667247904.952,-71.777,-27.344,-0.488,-92.773,0
1667247904.955,-152.832,-20.020,-19.043,-119.629,0
1667247904.959,-163.574,-15.625,-14.648,-130.859,0
1667247904.963,-93.262,-3.906,-3.906,-103.516,0
1667247904.967,-89.355,-3.418,-12.207,-122.070,0
1667247904.971,-153.809,-14.160,-14.648,-141.602,0
1667247904.975,-187.500,-8.301,-21.484,-144.043,0
1667247904.979,-135.254,-2.930,-23.438,-128.906,0
1667247904.983,-90.820,-7.324,-25.391,-118.652,0
1667247904.987,-143.555,-8.789,-22.949,-156.738,0
1667247904.991,-197.754,-8.301,-20.508,-150.391,0
1667247904.995,-146.973,-8.789,-30.762,-110.352,0
1667247904.999,-76.172,-14.160,-37.598,-134.766,0
1667247905.002,-123.535,-21.973,-30.273,-166.016,0
1667247905.006,-207.031,-23.438,-26.367,-155.762,0
1667247905.010,-183.105,-23.926,-28.809,-130.859,0
1667247905.014,-98.633,-24.414,-26.367,-125.488,0
1667247905.018,-90.820,-15.625,-13.672,-126.953,0
1667247905.019,-173.828,-4.395,-9.277,-144.531,0
1667247905.023,-188.965,-0.977,-18.555,-165.527,0
1667247905.027,-106.934,-4.395,-22.949,-125.977,0
1667247905.031,-63.965,1.953,-8.301,-110.840,0
1667247905.035,-144.531,7.812,-1.465,-135.254,0
1667247905.039,-182.617,8.789,-5.859,-124.512,0
1667247905.043,-109.863,0.488,-12.207,-119.141,0
1667247905.046,-66.895,-12.207,-17.578,-143.555,0
1667247905.050,-120.605,-13.672,-15.137,-144.531,0
1667247905.054,-191.895,-23.438,-23.926,-182.129,0
1667247905.058,-141.602,-27.344,-20.996,-158.691,0
1667247905.062,-50.293,-25.391,-14.160,-121.094,0
1667247905.064,-88.867,-18.066,-12.207,-142.090,0
1667247905.068,-171.875,-6.348,-8.301,-161.133,0
1667247905.072,-141.113,-0.488,-4.395,-150.391,0
1667247905.076,-41.504,-7.324,4.395,-119.629,0
1667247905.080,-38.574,-20.996,5.859,-131.348,0
1667247905.084,-145.020,-30.273,-2.930,-173.828,0
1667247905.088,-154.785,-23.926,4.883,-153.809,0
1667247905.091,-53.711,-15.137,18.066,-113.770,0
1667247905.095,-21.484,-16.113,12.695,-126.953,0
1667247905.099,-104.004,-18.066,4.395,-145.508,0
1667247905.103,-151.855,-24.414,8.789,-151.367,0
1667247905.107,-66.406,-37.109,16.602,-150.391,0
1667247905.109,-2.441,-27.832,7.324,-133.301,0
1667247905.113,-77.148,-3.906,9.766,-159.180,0
1667247905.117,-152.832,-0.977,11.719,-187.988,0
1667247905.121,-108.398,-8.301,1.953,-169.922,0
1667247905.125,-35.645,-13.184,-0.488,-150.879,0
1667247905.129,-62.012,-13.672,-11.719,-169.434,0
1667247905.133,-156.738,-17.578,-13.184,-183.105,0
1667247905.136,-146.484,-24.902,-8.789,-148.438,0
1667247905.140,-39.062,-27.344,-14.160,-151.367,0
1667247905.144,-18.066,-25.391,-6.348,-164.551,0
1667247905.148,-117.676,-24.414,1.465,-154.297,0
1667247905.152,-154.297,-22.949,-8.301,-172.852,0
1667247905.155,-54.199,-19.043,-7.812,-145.996,0
1667247905.159,12.207,-10.254,1.465,-116.699,0
1667247905.163,-71.289,-6.836,-1.465,-149.414,0
1667247905.167,-136.719,-11.230,-7.324,-148.438,0
1667247905.171,-62.500,-14.648,-4.395,-122.559,0
1667247905.175,19.531,-10.742,-1.465,-107.422,0
1667247905.179,-43.457,-6.836,3.906,-127.930,0
1667247905.182,-145.508,-10.254,1.953,-156.738,0
1667247905.186,-109.863,-11.230,-8.301,-145.508,0
1667247905.190,3.906,-9.766,-8.301,-119.629,0
1667247905.194,4.883,-12.207,-5.371,-110.352,0
1667247905.198,-118.652,-14.648,-2.930,-140.625,0
1667247905.199,-137.695,-8.789,1.953,-145.508,0
1667247905.203,0.000,2.441,7.812,-91.797,0
1667247905.207,26.367,-0.977,6.836,-84.961,0
1667247905.211,-103.516,-6.836,-4.395,-146.484,0
1667247905.215,-154.785,-12.207,-5.371,-150.879,0
1667247905.219,-35.156,-25.879,-1.465,-106.445,0
1667247905.223,39.062,-28.809,2.441,-85.938,0
1667247905.226,-65.918,-39.062,-1.465,-122.559,0
1667247905.230,-156.250,-52.734,-1.465,-156.250,0
1667247905.234,-82.520,-49.316,2.930,-118.164,0
1667247905.238,5.859,-39.551,-4.883,-115.234,0
1667247905.242,-52.734,-38.574,-7.812,-151.367,0
