timestamps,TP9,AF7,AF8,TP10
1667501355.138,-284.180,58.105,-354.004,-108.398
1667501355.142,107.910,53.711,-395.508,-77.148
1667501355.146,272.949,50.293,-485.352,-176.758
1667501355.150,-96.191,53.223,-408.691,-205.078
1667501355.154,-299.805,58.105,-367.676,-129.883
1667501355.158,0.977,53.223,-509.766,-59.082
1667501355.162,286.133,42.969,-610.840,-135.742
1667501355.165,-2.441,53.223,-491.699,-208.008
1667501355.169,-341.309,53.223,-388.672,-163.086
1667501355.173,-145.020,40.527,-525.391,-69.336
1667501355.177,233.398,41.992,-594.238,-123.047
1667501355.181,92.285,59.082,-410.645,-227.539
1667501355.181,92.285,59.082,-410.645,-227.539
1667501355.197,-296.387,55.664,-421.387,-202.637
1667501355.201,-254.395,52.246,-439.453,-111.816
1667501355.205,156.250,56.152,-431.152,-125.977
1667501355.209,191.406,59.570,-418.457,-230.957
1667501355.213,-219.727,56.152,-399.414,-215.820
1667501355.217,-322.754,53.223,-479.004,-108.398
1667501355.221,12.695,41.504,-486.816,-100.586
1667501355.224,229.492,40.039,-428.711,-212.891
1667501355.228,-114.746,54.199,-426.758,-247.559
1667501355.232,-368.164,43.945,-500.488,-172.852
1667501355.236,-83.984,50.293,-487.793,-102.051
1667501355.240,234.863,60.059,-457.031,-176.270
1667501355.243,-12.207,57.617,-439.941,-236.328
1667501355.247,-388.184,54.688,-418.945,-207.031
1667501355.251,-249.023,59.570,-402.832,-125.977
1667501355.255,147.461,63.965,-406.250,-153.320
1667501355.259,43.945,51.758,-439.941,-239.746
1667501355.263,-388.184,41.504,-506.836,-241.211
1667501355.267,-401.367,41.504,-469.727,-164.062
1667501355.270,-2.930,47.363,-410.645,-145.996
1667501355.274,88.379,50.293,-516.602,-225.586
1667501355.278,-334.473,38.086,-739.258,-226.562
1667501355.282,-504.883,60.059,-533.691,-189.453
1667501355.286,-144.531,74.707,-334.473,-167.480
1667501355.288,117.676,66.406,-457.031,-220.703
1667501355.292,-220.703,64.941,-456.055,-297.363
1667501355.296,-526.855,68.848,-385.742,-293.945
1667501355.300,-251.465,72.754,-375.000,-196.777
1667501355.304,77.148,66.895,-447.754,-232.910
1667501355.308,-153.320,59.082,-508.789,-327.148
1667501355.312,-467.285,70.312,-430.664,-322.754
1667501355.315,-340.332,72.754,-340.332,-216.797
1667501355.319,82.520,51.270,-541.992,-178.223
1667501355.323,38.574,62.012,-520.996,-281.738
1667501355.327,-372.559,80.566,-272.949,-324.219
1667501355.331,-374.023,74.219,-293.457,-210.449
1667501355.333,63.965,70.801,-329.102,-146.973
1667501355.337,214.355,80.566,-284.180,-224.609
1667501355.341,-176.270,78.125,-278.320,-242.676
1667501355.345,-365.723,61.035,-310.059,-158.691
1667501355.349,-38.574,41.992,-338.867,-84.473
1667501355.353,249.023,39.062,-370.605,-133.301
1667501355.357,-43.945,48.340,-322.266,-187.012
1667501355.360,-358.887,41.992,-390.137,-146.973
1667501355.364,-151.367,43.945,-411.621,-45.410
1667501355.368,230.957,58.105,-305.176,-68.359
1667501355.372,73.242,53.711,-264.160,-145.508
1667501355.376,-333.984,35.645,-398.926,-122.070
1667501355.378,-264.648,35.156,-509.766,-7.324
1667501355.382,150.879,56.641,-264.648,-24.414
1667501355.386,177.246,51.270,-293.457,-100.586
1667501355.390,-259.766,46.387,-312.012,-109.863
1667501355.394,-356.445,50.781,-273.438,-44.434
1667501355.398,54.199,48.828,-336.914,20.020
1667501355.402,247.559,43.945,-320.312,-41.016
1667501355.405,-130.371,33.203,-462.891,-77.637
1667501355.409,-372.559,36.621,-435.059,-48.340
1667501355.413,-56.152,49.316,-229.980,8.301
1667501355.417,285.156,50.293,-301.758,-26.367
1667501355.421,4.883,48.828,-335.938,-100.098
1667501355.423,-360.352,53.223,-258.789,-91.797
1667501355.427,-184.570,49.316,-216.797,2.441
1667501355.431,219.727,38.086,-293.945,9.766
1667501355.435,102.051,39.551,-352.051,-68.359
1667501355.439,-337.891,46.387,-301.758,-99.609
1667501355.443,-304.199,52.734,-315.430,-0.488
1667501355.447,108.398,46.387,-385.742,44.922
1667501355.450,156.738,20.996,-599.609,-14.160
1667501355.454,-257.324,35.645,-467.285,-78.613
1667501355.458,-398.926,51.270,-191.895,-60.547
1667501355.462,0.000,35.156,-317.871,38.086
1667501355.466,245.117,37.109,-376.465,-10.254
1667501355.468,-121.094,45.898,-256.836,-99.121
1667501355.472,-401.855,37.109,-244.141,-79.590
1667501355.476,-117.188,31.738,-278.320,28.809
1667501355.480,245.605,38.574,-261.719,10.254
1667501355.484,17.090,37.109,-315.430,-77.637
1667501355.488,-376.953,40.527,-340.820,-96.680
1667501355.492,-257.324,33.691,-446.777,0.000
1667501355.495,164.551,31.250,-465.820,16.602
1667501355.499,101.074,43.457,-273.438,-105.469
1667501355.503,-365.723,33.203,-323.242,-158.691
1667501355.507,-419.434,35.645,-333.984,-79.102
1667501355.511,44.922,47.852,-274.414,-13.184
1667501355.513,201.660,50.293,-271.973,-74.219
1667501355.517,-244.141,41.504,-327.148,-156.738
1667501355.521,-463.867,40.527,-354.492,-140.137
1667501355.525,-84.473,47.852,-285.156,-44.434
1667501355.529,258.301,49.805,-295.410,-42.480
1667501355.533,-81.543,43.457,-424.805,-119.141
1667501355.537,-454.590,29.785,-511.719,-142.578
1667501355.540,-207.031,38.574,-384.766,-60.059
1667501355.544,230.469,49.316,-241.211,-45.898
1667501355.548,50.293,37.598,-400.879,-113.281
1667501355.552,-402.832,34.180,-486.816,-165.039
1667501355.556,-315.430,51.758,-287.109,-87.891
1667501355.558,181.641,44.922,-330.078,-8.789
1667501355.562,187.012,38.574,-370.605,-68.848
1667501355.566,-312.012,45.898,-313.965,-171.875
1667501355.570,-411.133,45.898,-280.273,-138.672
1667501355.574,57.617,42.480,-313.477,-34.180
1667501355.578,278.809,41.992,-399.902,-50.293
1667501355.582,-171.387,43.457,-378.906,-153.320
1667501355.585,-445.312,50.293,-312.500,-175.781
1667501355.589,-71.289,49.316,-313.965,-62.012
1667501355.593,311.523,39.551,-419.434,-26.367
1667501355.597,-2.930,49.316,-366.211,-129.883
1667501355.601,-409.180,53.223,-265.625,-198.730
1667501355.618,-192.871,43.457,-314.453,-78.125
1667501355.622,281.250,43.945,-339.355,-12.695
1667501355.626,138.672,47.363,-371.094,-108.398
1667501355.630,-353.027,43.457,-375.000,-201.660
1667501355.634,-323.242,38.574,-388.672,-121.582
1667501355.638,181.152,40.527,-439.941,-20.020
1667501355.642,254.883,42.480,-378.906,-80.078
1667501355.645,-239.258,41.992,-407.227,-192.871
1667501355.649,-375.000,37.109,-469.727,-166.992
1667501355.653,76.660,27.344,-572.754,-28.809
1667501355.657,320.801,58.105,-378.418,-63.477
1667501355.661,-104.492,64.453,-308.105,-193.848
1667501355.663,-416.504,48.828,-370.117,-212.402
1667501355.667,-80.078,54.199,-327.148,-96.680
1667501355.671,340.820,58.594,-324.707,-58.105
1667501355.675,45.410,48.828,-353.516,-163.574
1667501355.679,-344.727,40.039,-432.617,-211.426
1667501355.683,-144.043,37.109,-416.016,-94.238
1667501355.687,280.273,42.480,-382.324,-43.945
1667501355.690,211.426,48.828,-366.211,-124.023
1667501355.694,-274.902,32.715,-528.320,-206.543
1667501355.698,-299.805,38.574,-518.555,-148.438
1667501355.702,209.473,63.477,-298.340,-54.688
1667501355.706,341.309,49.316,-336.426,-90.820
1667501355.708,-159.180,36.621,-359.863,-209.961
1667501355.712,-352.051,42.969,-347.656,-207.520
1667501355.716,87.891,46.387,-337.402,-75.195
1667501355.720,399.414,43.945,-365.234,-63.477
1667501355.724,-3.906,44.434,-391.113,-187.988
1667501355.728,-364.258,42.969,-395.508,-235.352
1667501355.732,-69.336,38.086,-403.320,-107.422
1667501355.735,368.652,34.180,-448.730,-56.641
1667501355.739,144.043,19.043,-670.898,-149.902
1667501355.743,-318.359,43.945,-528.809,-254.883
1667501355.747,-199.707,60.547,-302.734,-177.246
1667501355.751,294.434,46.875,-424.805,-60.059
1667501355.753,256.348,49.805,-437.012,-131.348
1667501355.757,-248.535,49.316,-388.184,-268.555
1667501355.761,-299.805,42.969,-386.230,-234.863
1667501355.765,208.496,29.785,-386.230,-117.188
1667501355.769,399.902,27.344,-388.184,-141.602
1667501355.773,-57.129,29.297,-424.805,-246.582
1667501355.777,-307.617,30.762,-426.758,-266.113
1667501355.780,102.539,28.320,-528.809,-125.000
1667501355.784,419.922,33.691,-520.508,-114.746
1667501355.788,44.434,42.480,-395.996,-276.367
1667501355.792,-292.480,30.273,-470.215,-329.102
1667501355.796,-32.715,34.668,-434.082,-221.680
1667501355.797,458.984,42.969,-405.273,-157.715
1667501355.801,314.453,37.598,-410.645,-258.301
1667501355.805,-163.574,27.344,-458.008,-356.934
1667501355.809,-97.168,27.832,-447.266,-268.555
1667501355.813,392.578,37.598,-416.016,-173.340
1667501355.817,407.715,32.715,-477.539,-236.328
1667501355.821,-67.871,24.414,-501.953,-354.004
1667501355.824,-175.293,14.648,-649.902,-298.340
1667501355.828,286.621,35.156,-534.180,-188.965
1667501355.832,512.207,51.270,-339.355,-225.586
1667501355.836,46.387,32.227,-439.941,-338.379
1667501355.840,-255.859,29.785,-476.074,-363.281
1667501355.842,113.770,39.551,-379.883,-235.352
1667501355.846,501.953,44.434,-323.730,-196.777
1667501355.850,169.434,42.969,-377.930,-312.012
1667501355.854,-282.715,42.480,-376.953,-398.926
1667501355.858,-69.336,42.969,-366.211,-291.504
1667501355.862,433.105,39.062,-409.180,-202.637
1667501355.866,298.828,31.250,-538.574,-263.672
1667501355.869,-185.059,38.574,-509.766,-363.281
1667501355.873,-140.625,51.758,-313.477,-298.828
1667501355.877,365.234,43.945,-369.141,-171.387
1667501355.881,429.199,43.457,-397.461,-209.473
1667501355.885,-76.172,47.363,-362.793,-345.215
1667501355.903,-248.535,45.410,-371.582,-348.145
1667501355.907,188.965,42.480,-386.230,-203.613
1667501355.911,455.078,34.668,-472.656,-184.082
1667501355.915,32.715,43.457,-453.613,-334.473
1667501355.919,-301.758,53.223,-372.070,-387.207
1667501355.923,19.043,39.062,-474.609,-230.469
1667501355.927,439.453,32.715,-573.242,-160.645
1667501355.930,175.293,45.898,-458.008,-303.711
1667501355.934,-261.230,57.129,-348.633,-403.320
1667501355.938,-97.656,42.969,-476.074,-254.395
1667501355.942,392.578,36.621,-557.129,-144.043
1667501355.946,303.223,52.246,-374.023,-249.023
1667501355.933,-207.031,46.875,-382.324,-365.723
1667501355.937,-242.188,42.969,-391.113,-292.969
1667501355.941,245.117,51.758,-342.773,-154.297
1667501355.945,361.328,47.852,-358.887,-187.012
1667501355.949,-121.094,29.297,-432.129,-318.848
1667501355.953,-329.590,21.973,-445.312,-321.289
1667501355.957,54.199,25.391,-454.102,-183.594
1667501355.960,335.938,33.203,-416.016,-159.180
1667501355.964,-50.781,32.227,-382.812,-277.344
1667501355.968,-388.672,11.719,-574.707,-310.547
1667501355.972,-130.371,22.949,-524.414,-182.617
1667501355.976,278.809,40.039,-380.371,-120.117
1667501355.993,70.801,30.273,-426.270,-218.750
1667501355.997,-375.977,22.461,-420.410,-330.078
1667501356.001,-270.996,26.367,-394.043,-239.746
1667501356.005,222.656,30.762,-360.840,-113.770
1667501356.009,206.055,18.066,-453.125,-168.457
1667501356.013,-288.086,13.184,-540.039,-295.410
1667501356.017,-366.211,21.973,-442.871,-255.859
1667501356.020,93.262,28.320,-402.832,-113.770
1667501356.024,274.414,20.996,-535.645,-119.629
1667501356.028,-182.129,12.207,-679.688,-237.793
1667501356.032,-450.195,34.180,-471.191,-277.832
1667501356.036,-71.289,45.410,-348.145,-139.160
1667501356.038,279.785,37.598,-404.297,-82.031
1667501356.042,-57.129,34.668,-430.664,-214.844
1667501356.046,-444.336,34.180,-412.109,-291.992
1667501356.050,-210.938,28.320,-400.879,-140.137
1667501356.054,228.027,20.996,-489.746,-33.691
1667501356.058,44.434,16.113,-520.996,-142.578
1667501356.062,-422.363,16.113,-483.398,-259.766
1667501356.065,-331.055,27.832,-413.574,-174.316
1667501356.069,159.668,17.090,-572.266,-11.230
1667501356.073,154.297,14.648,-598.633,-62.012
1667501356.077,-339.355,32.227,-392.090,-225.098
1667501356.081,-447.754,24.902,-391.602,-205.566
1667501356.082,-7.812,31.250,-402.344,-66.895
1667501356.086,201.172,40.039,-390.625,-73.242
1667501356.090,-236.816,26.367,-382.812,-228.516
1667501356.094,-517.578,25.391,-422.363,-242.188
1667501356.098,-178.223,24.414,-489.258,-91.797
1667501356.102,169.922,27.832,-534.180,-56.152
1667501356.106,-167.480,32.715,-558.105,-187.500
1667501356.109,-600.098,31.738,-582.031,-288.086
1667501356.113,-416.016,29.785,-742.188,-146.484
1667501356.117,24.902,45.410,-657.715,-58.105
1667501356.121,-97.656,52.734,-471.191,-187.012
1667501356.125,-558.594,36.133,-544.922,-306.152
1667501356.127,-543.945,42.480,-531.738,-245.117
1667501356.131,-72.754,56.641,-426.270,-127.930
1667501356.135,2.930,41.504,-459.961,-168.945
1667501356.139,-465.332,33.203,-516.113,-325.195
1667501356.143,-605.957,41.504,-526.855,-328.125
1667501356.147,-164.062,45.410,-546.387,-173.828
1667501356.151,112.305,48.828,-458.984,-153.320
1667501356.154,-264.648,34.668,-569.824,-268.066
1667501356.158,-565.918,41.016,-606.445,-315.918
1667501356.162,-250.977,60.059,-373.047,-187.988
1667501356.166,158.203,49.316,-387.695,-92.773
1667501356.170,-85.938,39.551,-444.336,-186.523
1667501356.176,-493.652,34.180,-396.973,-278.809
1667501356.180,-320.312,36.133,-385.742,-169.434
1667501356.184,160.645,31.738,-471.191,-48.828
1667501356.188,92.773,27.344,-425.781,-118.164
1667501356.192,-362.305,29.785,-394.531,-234.375
1667501356.196,-376.465,26.367,-429.199,-155.762
1667501356.200,104.492,16.113,-466.309,0.488
1667501356.203,236.816,5.859,-474.609,-30.762
1667501356.207,-227.051,13.184,-359.863,-201.172
1667501356.211,-406.250,16.602,-310.547,-208.496
1667501356.215,10.742,3.418,-455.078,-26.367
1667501356.219,303.711,-3.418,-610.840,32.715
1667501356.218,-72.266,17.578,-368.652,-125.000
1667501356.222,-385.254,16.602,-316.406,-185.059
1667501356.226,-96.680,8.301,-354.004,-20.996
1667501356.230,331.055,17.578,-326.660,68.359
1667501356.234,127.930,15.137,-378.906,-34.668
1667501356.238,-323.730,4.395,-377.441,-135.254
1667501356.242,-213.867,-1.465,-482.910,-14.648
1667501356.245,256.836,7.324,-470.703,105.957
1667501356.249,230.469,19.531,-292.969,7.812
1667501356.253,-234.375,12.695,-336.914,-129.395
1667501356.257,-292.969,8.789,-350.586,-77.148
1667501356.261,158.691,14.160,-332.031,65.918
1667501356.263,322.754,18.555,-299.316,52.734
1667501356.267,-118.652,6.348,-338.867,-82.520
1667501356.271,-343.262,4.395,-327.148,-101.562
1667501356.275,47.852,18.066,-286.621,56.152
1667501356.279,355.469,25.391,-306.641,89.355
1667501356.283,17.090,15.625,-416.016,-46.387
1667501356.287,-340.820,9.766,-513.672,-107.910
1667501356.290,-30.762,22.949,-409.668,-3.906
1667501356.294,453.613,28.320,-320.801,59.570
1667501356.298,230.957,20.020,-394.043,-38.574
1667501356.302,-234.375,13.672,-452.148,-136.719
1667501356.306,-178.223,22.949,-299.805,-46.387
1667501356.308,291.992,21.973,-302.246,78.613
1667501356.312,285.156,12.207,-348.145,23.926
1667501356.316,-218.750,13.672,-346.191,-135.254
1667501356.320,-324.219,22.461,-316.406,-113.281
1667501356.324,123.047,25.391,-321.289,55.664
1667501356.328,330.078,11.230,-431.152,68.359
1667501356.332,-97.168,21.973,-400.879,-106.445
1667501356.335,-362.793,40.039,-288.086,-174.805
1667501356.339,-29.785,20.996,-351.074,-34.180
1667501356.343,305.176,17.578,-438.477,17.578
1667501356.347,-12.695,29.785,-341.309,-139.648
1667501356.351,-406.250,29.785,-302.734,-241.211
1667501356.368,-210.449,27.344,-334.961,-98.633
1667501356.372,217.773,34.180,-356.445,-5.371
1667501356.376,54.688,44.434,-366.699,-128.906
1667501356.380,-431.641,40.039,-345.215,-291.016
1667501356.384,-400.391,30.273,-386.230,-220.703
1667501356.388,69.336,30.273,-491.699,-80.078
1667501356.392,119.141,41.016,-434.570,-145.020
1667501356.395,-357.910,44.922,-357.910,-322.754
1667501356.399,-482.422,30.273,-427.734,-293.457
1667501356.403,-49.805,19.531,-601.562,-100.586
1667501356.407,167.480,39.062,-423.828,-129.883
1667501356.411,-230.957,34.668,-361.816,-310.547
1667501356.413,-512.207,32.227,-425.293,-344.727
1667501356.417,-204.102,40.527,-317.383,-190.430
1667501356.421,177.246,37.598,-292.480,-125.488
1667501356.425,-61.035,38.574,-322.754,-245.117
1667501356.429,-452.637,36.133,-347.656,-324.219
1667501356.433,-299.316,24.902,-374.023,-176.270
1667501356.437,147.461,29.785,-347.168,-44.922
1667501356.440,64.453,27.344,-253.906,-146.484
1667501356.444,-388.184,-3.418,-474.121,-270.996
1667501356.448,-398.926,7.812,-462.891,-188.477
1667501356.452,59.570,28.809,-241.699,-28.320
1667501356.456,150.391,13.184,-305.176,-62.988
1667501356.460,-291.992,10.254,-313.477,-202.637
1667501356.464,-440.918,8.789,-309.082,-173.340
1667501356.468,-64.941,6.348,-297.363,-17.090
1667501356.472,196.289,6.836,-334.961,1.465
1667501356.476,-167.969,0.977,-379.395,-139.648
1667501356.480,-483.398,-2.930,-344.727,-183.594
1667501356.484,-211.914,-2.441,-315.918,-43.945
1667501356.487,195.312,-4.883,-353.027,28.809
1667501356.491,-14.160,-27.832,-591.797,-65.918
1667501356.495,-443.848,-10.742,-456.055,-187.500
1667501356.499,-320.312,11.719,-187.012,-80.566
1667501356.503,138.672,-3.418,-287.109,80.566
1667501356.504,78.613,0.488,-283.691,-1.465
1667501356.508,-394.043,-1.953,-239.746,-145.020
1667501356.512,-424.316,-10.254,-253.418,-56.152
1667501356.516,24.902,-3.906,-280.273,116.211
1667501356.520,141.113,-0.488,-335.449,57.617
1667501356.524,-305.176,-4.395,-331.055,-116.211
1667501356.528,-500.977,-1.465,-243.164,-115.234
1667501356.531,-137.695,-9.277,-398.438,74.707
1667501356.535,146.973,-4.395,-416.504,108.398
1667501356.539,-187.988,15.137,-193.848,-62.500
1667501356.543,-512.695,0.977,-277.344,-113.281
1667501356.547,-271.973,-5.859,-292.480,34.668
1667501356.548,126.465,-0.488,-271.973,112.793
1667501356.552,-63.965,3.418,-294.434,-1.953
1667501356.556,-482.422,0.488,-294.434,-114.746
1667501356.560,-385.742,3.418,-272.461,-5.859
1667501356.564,65.430,10.254,-278.320,127.930
1667501356.568,56.641,1.465,-359.863,53.223
1667501356.572,-400.879,-3.906,-393.555,-98.145
1667501356.575,-470.215,-5.859,-472.168,-41.016
1667501356.579,-45.898,11.230,-352.539,100.098
1667501356.583,135.254,22.461,-235.840,48.340
1667501356.587,-273.438,1.953,-420.410,-85.938
1667501356.591,-524.414,2.930,-446.289,-92.285
1667501356.592,-196.777,18.066,-239.258,46.875
1667501356.596,123.535,9.766,-251.465,82.031
1667501356.600,-183.105,1.465,-317.871,-47.852
1667501356.604,-540.527,8.789,-302.246,-117.676
1667501356.608,-325.684,10.254,-286.133,15.625
1667501356.612,104.980,4.395,-300.781,104.492
1667501356.616,-35.156,-3.418,-462.891,-0.977
1667501356.619,-463.379,0.000,-459.473,-117.676
1667501356.623,-408.203,8.301,-236.816,-35.156
1667501356.627,39.062,-1.465,-279.785,101.562
1667501356.631,68.848,1.465,-313.477,32.227
1667501356.635,-385.254,7.324,-265.137,-127.441
1667501356.638,-489.746,6.836,-241.699,-100.098
1667501356.642,-69.824,3.906,-269.043,64.941
1667501356.646,162.109,0.000,-291.504,56.152
1667501356.650,-233.398,7.324,-265.625,-106.934
1667501356.654,-496.582,10.254,-261.719,-137.207
1667501356.658,-176.270,-1.953,-352.539,31.738
1667501356.662,171.875,-4.883,-441.895,95.215
1667501356.665,-91.797,17.090,-339.355,-67.383
1667501356.669,-479.004,24.902,-229.004,-167.480
1667501356.673,-312.988,4.883,-371.094,-14.160
1667501356.677,111.328,0.000,-494.141,75.195
1667501356.681,-1.465,13.184,-342.285,-47.363
1667501356.699,-438.965,14.648,-268.066,-163.086
1667501356.703,-425.293,13.672,-270.996,-78.613
1667501356.707,13.184,13.672,-311.523,69.336
1667501356.711,94.238,20.020,-298.828,17.090
1667501356.715,-350.098,17.090,-324.707,-138.184
1667501356.719,-497.559,-0.977,-463.379,-106.934
1667501356.723,-119.141,13.672,-387.695,49.805
1667501356.726,129.395,26.367,-305.664,33.203
1667501356.730,-221.680,12.695,-380.859,-122.559
1667501356.734,-522.949,15.625,-419.922,-168.945
1667501356.738,-240.723,28.809,-313.965,-21.973
1667501356.742,162.109,31.738,-273.926,59.570
1667501356.744,-53.711,23.438,-335.938,-55.664
1667501356.748,-479.004,12.695,-345.703,-167.969
1667501356.752,-380.371,10.742,-283.203,-79.102
1667501356.756,63.477,12.207,-277.344,22.949
1667501356.760,14.160,4.395,-357.422,-76.660
1667501356.764,-426.270,-6.348,-413.086,-205.566
1667501356.768,-455.078,-4.395,-384.766,-136.719
1667501356.771,-42.480,-2.930,-364.258,-5.371
1667501356.775,93.262,-11.230,-426.758,-48.828
1667501356.779,-329.590,-20.020,-638.184,-191.895
1667501356.783,-520.996,4.395,-496.094,-206.055
1667501356.787,-142.090,24.902,-261.719,-52.246
1667501356.789,153.320,11.230,-336.426,-15.625
1667501356.793,-187.988,12.695,-357.422,-167.969
1667501356.797,-517.090,19.043,-314.453,-231.934
1667501356.801,-263.184,9.766,-352.051,-79.102
1667501356.805,130.371,10.742,-403.320,8.789
1667501356.809,-61.035,13.184,-414.551,-112.305
1667501356.813,-479.980,15.625,-359.863,-207.520
1667501356.816,-391.113,15.625,-287.109,-92.773
1667501356.820,75.195,-0.488,-456.543,53.711
1667501356.824,61.035,11.230,-453.125,-38.086
1667501356.828,-395.020,29.297,-253.906,-207.520
1667501356.832,-459.473,18.066,-263.672,-142.090
1667501356.834,-24.414,16.113,-289.062,22.461
1667501356.838,152.832,23.438,-255.859,0.977
1667501356.842,-258.301,21.484,-252.441,-147.949
1667501356.846,-479.980,15.137,-281.738,-155.762
1667501356.850,-121.582,12.695,-305.176,13.672
1667501356.854,214.355,15.137,-315.430,53.223
1667501356.858,-76.660,24.414,-289.551,-93.262
1667501356.861,-415.527,20.020,-342.773,-154.785
1667501356.865,-192.871,0.000,-528.320,30.273
1667501356.869,202.637,15.625,-440.430,111.816
1667501356.873,36.621,29.785,-235.840,-47.852
1667501356.877,-384.766,19.043,-324.219,-148.926
1667501356.879,-311.523,22.461,-327.148,-44.434
1667501356.883,113.770,30.762,-226.074,83.496
1667501356.887,128.418,24.414,-279.785,24.902
1667501356.891,-309.082,13.672,-344.238,-123.535
1667501356.895,-411.621,21.973,-327.637,-86.914
1667501356.899,0.488,27.344,-337.402,90.820
1667501356.903,194.336,25.879,-297.852,78.613
1667501356.906,-194.336,13.184,-456.055,-63.477
1667501356.910,-435.547,14.648,-503.906,-97.656
1667501356.914,-125.977,37.598,-263.184,37.109
1667501356.918,208.984,31.738,-286.133,97.168
1667501356.922,-56.641,21.973,-351.562,-60.059
1667501356.924,-415.039,26.855,-304.199,-151.855
1667501356.928,-229.004,26.855,-247.559,-6.348
1667501356.932,182.617,18.555,-274.902,82.520
1667501356.936,55.664,16.602,-303.223,-51.270
1667501356.940,-378.418,19.531,-321.777,-194.336
1667501356.944,-346.680,19.043,-327.148,-108.398
1667501356.948,81.055,18.555,-322.754,34.180
1667501356.951,130.371,-1.953,-558.105,-13.184
1667501356.955,-304.688,9.766,-498.535,-209.961
1667501356.959,-426.758,36.621,-249.023,-228.516
1667501356.963,-57.129,29.297,-366.699,-57.617
1667501356.967,162.598,38.086,-397.461,-72.754
1667501356.969,-180.664,49.316,-302.246,-236.816
1667501356.973,-476.562,32.227,-326.660,-288.574
1667501356.977,-259.766,21.484,-341.309,-164.062
1667501356.981,49.805,24.414,-330.078,-137.207
1667501356.985,-207.031,11.719,-377.441,-308.594
1667501356.989,-599.609,1.465,-454.590,-446.777
1667501356.993,-476.562,5.371,-404.297,-347.168
1667501356.996,-104.492,6.348,-336.914,-268.066
1667501357.000,-204.102,-2.930,-361.816,-417.969
1667501357.004,-618.652,-16.602,-381.348,-573.730
1667501357.008,-613.770,-19.531,-442.383,-465.332
1667501357.012,-215.332,-7.324,-372.559,-284.668
1667501357.014,-55.176,-25.879,-318.359,-361.816
1667501357.018,-406.250,-49.805,-372.559,-545.898
1667501357.022,-575.684,-50.781,-328.613,-538.086
1667501357.026,-227.051,-45.410,-272.461,-355.957
1667501357.030,-14.160,-44.922,-309.570,-309.082
1667501357.034,-354.004,-66.406,-449.219,-434.570
1667501357.038,-590.820,-71.777,-494.629,-454.590
1667501357.041,-340.820,-49.805,-343.262,-276.367
1667501357.045,5.371,-44.922,-250.488,-153.809
1667501357.049,-178.711,-75.195,-433.594,-260.742
1667501357.053,-547.852,-82.520,-509.277,-395.020
1667501357.057,-415.527,-52.734,-277.832,-279.297
1667501357.058,-1.953,-61.035,-282.227,-125.488
1667501357.062,-56.152,-76.660,-329.102,-211.426
1667501357.066,-461.914,-74.707,-341.309,-338.867
1667501357.070,-489.258,-69.824,-358.398,-257.812
1667501357.074,-100.586,-64.941,-324.707,-83.496
1667501357.078,38.574,-66.895,-402.344,-73.730
1667501357.082,-338.379,-58.105,-407.227,-230.957
1667501357.085,-522.461,-51.270,-296.387,-259.277
1667501357.089,-210.449,-58.594,-307.617,-72.754
1667501357.093,51.270,-67.871,-438.477,-24.902
1667501357.097,-227.051,-62.012,-442.871,-196.289
1667501357.101,-518.555,-43.457,-341.309,-262.695
1667501357.119,-310.547,-45.898,-304.199,-91.797
1667501357.123,42.480,-48.340,-324.707,-8.301
1667501357.127,-114.746,-35.645,-307.617,-178.223
1667501357.131,-459.961,-33.203,-310.059,-343.750
1667501357.135,-341.797,-34.180,-349.121,-243.164
1667501357.139,45.898,-33.203,-413.086,-112.305
1667501357.143,8.301,-27.344,-390.137,-217.773
1667501357.146,-357.422,-25.391,-344.238,-410.156
1667501357.150,-411.621,-22.949,-393.555,-341.797
1667501357.154,-75.195,-28.320,-547.363,-166.504
1667501357.158,74.219,-10.254,-397.461,-311.035
1667501357.162,-263.184,1.953,-270.020,-479.980
1667501357.164,-464.355,-13.672,-352.539,-463.867
1667501357.168,-208.008,-8.789,-315.918,-294.434
1667501357.172,46.875,-2.930,-274.902,-223.145
1667501357.176,-193.359,-7.324,-278.320,-392.578
1667501357.180,-473.145,-11.719,-329.590,-497.070
1667501357.184,-328.125,-17.578,-357.910,-349.609
1667501357.188,0.000,-4.395,-318.848,-241.211
1667501357.191,-90.820,1.465,-332.520,-391.113
1667501357.195,-422.852,-19.043,-520.508,-538.574
1667501357.199,-381.348,-7.812,-485.352,-444.336
1667501357.203,-19.043,8.301,-283.203,-310.059
1667501357.207,54.199,0.977,-357.910,-364.746
1667501357.209,-285.645,0.000,-419.922,-542.969
1667501357.213,-373.047,7.812,-351.562,-547.852
1667501357.217,-48.340,8.301,-327.637,-366.211
1667501357.221,136.230,1.465,-384.766,-349.609
1667501357.225,-166.016,-7.324,-470.215,-537.598
1667501357.229,-361.816,-8.301,-511.230,-588.867
1667501357.233,-130.859,0.488,-453.125,-406.250
1667501357.236,136.230,6.348,-486.816,-314.941
1667501357.240,-50.781,-3.418,-705.078,-440.430
1667501357.244,-335.938,13.184,-600.586,-541.992
1667501357.248,-214.355,28.809,-382.324,-414.062
1667501357.252,109.375,14.648,-462.402,-245.117
1667501357.254,48.828,8.789,-446.777,-339.844
1667501357.258,-302.734,14.648,-356.445,-526.855
1667501357.262,-314.941,29.785,-369.141,-477.051
1667501357.266,34.668,38.574,-375.000,-306.152
1667501357.270,127.930,43.945,-350.586,-330.566
1667501357.274,-209.473,40.527,-417.969,-511.719
1667501357.278,-335.938,43.945,-407.227,-510.254
1667501357.281,-41.992,43.945,-465.820,-279.785
1667501357.285,150.391,53.711,-452.637,-237.305
1667501357.289,-108.887,71.777,-290.527,-441.406
1667501357.293,-327.148,74.219,-330.078,-486.328
1667501357.297,-139.160,81.055,-340.332,-286.133
1667501357.299,132.812,84.473,-343.262,-162.598
1667501357.303,-35.156,86.426,-333.008,-312.988
1667501357.307,-309.082,90.332,-340.820,-434.082
1667501357.311,-205.566,91.797,-333.008,-254.395
1667501357.315,103.516,102.051,-304.688,-70.312
1667501357.319,68.359,99.121,-318.359,-142.578
1667501357.323,-272.461,88.867,-339.844,-304.199
1667501357.326,-304.688,86.426,-531.250,-208.008
1667501357.330,16.113,111.328,-416.992,-9.766
1667501357.334,119.141,124.023,-203.613,-47.363
1667501357.338,-190.918,105.469,-324.707,-208.984
1667501357.342,-329.102,106.445,-353.027,-215.820
1667501357.349,-68.848,101.074,-255.859,-4.395
1667501357.353,133.301,90.820,-258.301,78.125
1667501357.357,-102.051,84.473,-338.379,-81.055
1667501357.361,-314.941,87.402,-303.711,-137.207
1667501357.365,-143.066,97.168,-265.625,46.387
1667501357.369,145.508,90.332,-311.523,152.832
1667501357.373,11.719,67.383,-450.195,49.805
1667501357.376,-298.828,68.359,-438.965,-80.078
1667501357.380,-248.047,84.961,-212.891,13.184
1667501357.384,75.684,72.266,-272.949,200.684
1667501357.388,77.637,66.406,-310.059,122.559
1667501357.392,-252.441,73.242,-284.668,-52.734
1667501357.388,-300.781,70.801,-283.203,10.254
1667501357.392,-1.465,63.965,-266.113,226.562
1667501357.396,118.164,60.547,-303.223,230.469
1667501357.400,-195.312,60.547,-288.574,47.363
1667501357.404,-372.559,59.570,-298.340,19.531
1667501357.408,-125.977,48.340,-395.996,218.750
1667501357.412,95.215,41.016,-437.012,289.551
1667501357.415,-137.207,45.410,-388.672,82.520
1667501357.419,-372.070,51.270,-308.105,-40.039
1667501357.423,-210.449,42.969,-377.441,143.066
1667501357.427,91.797,36.133,-445.312,293.945
1667501357.431,-16.113,47.363,-295.410,161.133
1667501357.433,-336.426,42.480,-279.297,22.461
1667501357.437,-300.781,32.715,-312.012,120.605
1667501357.441,27.832,34.668,-295.410,267.578
1667501357.445,61.035,34.180,-272.949,187.012
1667501357.449,-271.484,23.926,-308.105,-3.418
1667501357.453,-352.051,17.578,-361.816,27.344
1667501357.457,-60.547,19.043,-338.867,208.008
1667501357.460,100.098,23.926,-307.617,191.406
1667501357.464,-178.223,19.043,-308.594,10.254
1667501357.468,-390.137,8.789,-380.371,-18.555
1667501357.472,-178.711,20.996,-340.820,170.898
1667501357.476,90.332,28.809,-249.512,236.816
1667501357.493,-103.027,15.137,-304.199,89.844
1667501357.497,-389.160,14.648,-298.340,-11.230
1667501357.501,-261.230,21.484,-238.281,128.906
1667501357.505,67.383,16.602,-235.352,255.859
1667501357.509,-16.602,5.859,-325.195,145.020
1667501357.513,-363.770,-0.488,-375.000,4.883
1667501357.517,-347.168,9.766,-336.914,90.820
1667501357.520,-8.789,21.484,-290.527,260.742
1667501357.524,61.035,11.230,-360.840,214.355
1667501357.528,-268.066,-2.930,-541.016,65.918
1667501357.532,-388.672,12.695,-383.789,38.574
1667501357.536,-108.398,14.648,-220.703,167.480
1667501357.539,87.891,8.301,-279.785,191.895
1667501357.543,-194.336,12.207,-305.176,22.461
1667501357.547,-411.621,19.043,-249.512,-34.180
1667501357.551,-188.965,17.090,-202.637,130.371
1667501357.555,104.004,9.766,-279.785,211.426
1667501357.559,-73.730,10.742,-288.574,72.266
1667501357.563,-385.254,20.020,-242.676,-53.711
1667501357.566,-292.480,28.320,-90.820,72.754
1667501357.570,25.879,0.977,-253.418,225.586
1667501357.574,13.672,-5.371,-381.348,111.816
1667501357.578,-310.059,13.672,-158.203,-66.895
1667501357.582,-340.820,9.766,-223.145,8.301
1667501357.584,-12.207,5.859,-271.484,178.711
1667501357.588,82.031,8.789,-242.188,124.023
1667501357.592,-241.699,10.254,-260.254,-34.668
1667501357.596,-381.348,1.465,-274.414,-22.461
1667501357.600,-116.211,-0.977,-266.113,131.348
1667501357.604,116.211,4.395,-298.828,152.344
1667501357.608,-138.184,6.348,-335.938,-4.883
1667501357.611,-369.141,10.742,-354.004,-50.293
1667501357.615,-150.391,20.996,-345.703,136.719
1667501357.619,147.949,20.996,-253.906,217.285
1667501357.623,-32.227,1.465,-184.082,44.922
1667501357.627,-359.375,-17.578,-329.102,-69.824
1667501357.629,-270.020,-19.531,-444.824,71.777
1667501357.633,63.965,2.930,-224.121,171.875
1667501357.637,59.570,-4.395,-247.070,82.520
1667501357.641,-289.062,-13.672,-267.578,-46.387
1667501357.645,-345.703,-13.672,-202.637,-0.488
1667501357.649,-25.879,-20.020,-276.855,162.598
1667501357.653,115.234,-17.578,-265.625,131.836
1667501357.656,-186.035,-26.855,-384.277,-5.371
1667501357.660,-360.840,-17.090,-374.023,-16.113
1667501357.664,-104.980,3.418,-44.922,129.395
1667501357.668,148.926,0.488,-11.719,172.852
1667501357.672,-100.098,-9.277,-197.266,23.926
1667501357.674,-393.555,-5.371,-137.695,-51.270
1667501357.678,-229.980,-2.441,48.340,88.867
1667501357.682,96.191,-7.812,-0.977,211.426
1667501357.686,-18.066,-9.766,-115.723,84.961
1667501357.690,-342.773,-9.766,-135.254,-83.984
1667501357.694,-293.945,-11.719,-170.410,2.930
1667501357.698,45.410,-10.254,-106.445,136.719
1667501357.701,77.148,-16.602,-220.703,71.777
1667501357.705,-279.297,-5.859,-149.414,-84.961
1667501357.709,-357.422,8.789,123.047,-58.594
1667501357.713,-23.926,-7.324,-13.184,98.633
1667501357.717,158.691,-14.160,-130.371,47.852
1667501357.719,-144.531,-4.883,65.430,-127.441
1667501357.723,-331.055,-6.836,96.191,-125.488
1667501357.727,-78.613,-5.859,29.785,48.828
1667501357.731,201.172,-5.859,62.500,72.754
1667501357.735,27.344,10.742,75.195,-58.105
1667501357.739,-248.047,12.695,102.539,-132.812
1667501357.743,-132.324,-22.461,-89.355,-14.648
1667501357.746,204.590,-22.949,-158.691,54.688
1667501357.750,157.227,-1.465,178.223,-118.164
1667501357.754,-166.016,-6.348,180.176,-242.188
1667501357.758,-163.086,-11.719,148.926,-165.527
1667501357.762,177.734,-6.348,209.473,-45.898
1667501357.764,261.719,-6.836,216.309,-109.375
1667501357.768,-75.195,-8.789,165.527,-265.137
1667501357.772,-202.637,-7.324,179.199,-241.211
1667501357.776,83.984,-0.488,246.582,-83.984
1667501357.780,306.152,7.324,235.840,-101.074
1667501357.784,69.824,16.113,192.383,-231.445
1667501357.788,-156.250,7.324,83.984,-240.723
1667501357.791,1.953,0.488,169.922,-131.348
1667501357.795,263.672,7.324,283.691,-94.727
1667501357.799,100.098,-10.742,153.809,-210.449
1667501357.803,-220.703,-19.531,116.211,-291.992
1667501357.807,-111.816,-4.395,259.277,-163.574
1667501357.808,238.770,-8.789,275.879,-26.855
1667501357.812,204.590,-15.137,161.621,-106.934
1667501357.816,-121.094,-17.090,157.715,-239.746
1667501357.820,-116.699,-9.277,240.723,-161.133
1667501357.824,226.074,0.977,224.609,14.648
1667501357.828,340.820,-6.348,76.660,0.977
1667501357.832,16.113,-1.953,72.754,-165.527
1667501357.835,-127.930,6.836,234.375,-197.266
1667501357.839,157.227,-0.488,203.613,-39.062
1667501357.843,404.297,-7.812,108.887,-13.672
1667501357.847,165.527,-0.977,122.559,-187.500
1667501357.851,-73.730,3.906,148.926,-259.277
1667501357.869,129.883,-9.766,128.418,-83.008
1667501357.873,448.242,-9.277,129.395,12.695
1667501357.877,327.148,1.953,124.512,-125.000
1667501357.881,15.625,7.324,109.375,-245.605
1667501357.885,93.750,4.883,58.105,-113.281
1667501357.889,443.359,-3.418,-28.320,44.922
1667501357.893,434.570,-0.488,-12.695,-54.688
1667501357.896,62.988,9.277,-5.859,-228.516
1667501357.900,8.301,5.371,-73.242,-177.246
1667501357.904,324.707,-7.812,-360.840,25.391
1667501357.908,440.430,12.695,-233.398,-18.066
1667501357.912,124.512,18.066,1.953,-222.168
1667501357.915,-78.125,-0.488,-184.570,-250.977
1667501357.919,160.645,-1.465,-290.039,-87.402
1667501357.923,436.035,4.883,-260.742,-29.785
1667501357.927,210.449,7.324,-253.418,-205.566
1667501357.931,-86.426,0.000,-343.262,-331.543
1667501357.935,72.266,-3.418,-362.793,-204.590
1667501357.939,400.879,0.000,-342.285,-93.262
1667501357.942,297.852,5.859,-311.035,-221.680
1667501357.946,-28.320,-6.836,-517.578,-372.559
1667501357.950,8.789,-2.441,-508.789,-300.781
1667501357.954,372.070,8.789,-335.938,-157.227
1667501357.958,430.176,-2.930,-431.152,-214.844
1667501357.959,71.289,5.859,-416.992,-415.527
1667501357.963,-23.926,7.324,-384.766,-409.668
1667501357.967,302.246,-1.465,-358.887,-209.473
1667501357.971,489.258,-4.883,-391.602,-171.387
1667501357.975,178.223,-8.301,-493.164,-351.074
1667501357.979,-48.828,-0.977,-475.098,-435.059
1667501357.983,195.312,4.883,-406.250,-269.531
1667501357.986,497.559,0.488,-442.383,-175.293
1667501357.990,314.941,-15.137,-687.012,-288.086
1667501357.994,-2.441,2.930,-619.629,-414.062
1667501357.998,121.582,30.273,-348.145,-306.641
1667501358.002,482.910,20.020,-454.102,-126.465
1667501358.004,420.410,19.043,-521.973,-203.125
1667501358.008,65.918,22.461,-452.148,-378.906
1667501358.012,75.195,20.020,-459.473,-310.547
1667501358.016,428.223,20.996,-477.051,-119.629
1667501358.020,494.141,18.555,-503.906,-154.785
1667501358.024,126.465,15.137,-589.355,-336.426
1667501358.028,-14.160,18.555,-581.055,-337.402
1667501358.031,298.340,14.160,-705.566,-122.070
1667501358.035,534.180,14.648,-729.492,-84.961
1667501358.039,266.113,28.320,-566.895,-296.875
1667501358.043,26.855,29.785,-613.281,-370.117
1667501358.047,229.980,35.645,-657.715,-171.387
1667501358.049,523.926,33.203,-642.578,-62.500
1667501358.053,340.820,27.344,-658.691,-229.492
1667501358.057,1.953,22.461,-716.309,-376.953
1667501358.061,59.082,19.531,-734.863,-248.047
1667501358.065,354.492,25.879,-737.305,-122.559
1667501358.069,309.082,25.391,-803.223,-226.074
1667501358.073,-65.918,27.344,-801.270,-378.418
1667501358.076,-120.605,17.578,-884.766,-285.156
1667501358.080,209.961,29.297,-864.258,-117.676
1667501358.084,333.008,49.805,-730.957,-172.363
1667501358.088,-17.090,39.551,-821.289,-368.652
1667501358.092,-206.543,46.875,-822.754,-419.434
1667501358.094,85.938,56.152,-721.680,-241.211
1667501358.098,328.613,40.039,-745.605,-182.129
1667501358.102,49.805,27.832,-742.188,-354.980
1667501358.106,-217.285,30.762,-717.773,-467.285
1667501358.110,-51.270,29.785,-709.961,-324.219
1667501358.114,261.719,19.531,-777.832,-152.832
1667501358.118,127.441,15.137,-796.387,-263.184
1667501358.121,-241.211,21.484,-742.188,-480.957
1667501358.125,-194.824,27.344,-695.801,-361.328
1667501358.129,168.457,32.227,-717.773,-127.930
1667501358.133,190.918,28.809,-786.621,-179.688
1667501358.137,-199.219,26.367,-774.902,-421.875
1667501358.139,-287.598,44.434,-681.641,-413.574
1667501358.143,85.938,49.316,-633.789,-166.992
1667501358.147,290.527,39.062,-652.832,-118.652
1667501358.151,-14.648,40.039,-630.371,-273.926
1667501358.155,-203.125,39.551,-637.207,-269.531
1667501358.159,52.246,33.203,-708.496,-28.809
1667501358.163,320.801,30.762,-774.902,135.742
1667501358.166,83.496,36.133,-741.211,176.758
1667501358.170,-242.188,41.504,-621.094,122.559
1667501358.174,-99.121,31.250,-692.871,145.020
1667501358.178,239.258,20.020,-801.758,260.254
1667501358.182,115.234,37.109,-625.488,105.469
1667501358.183,-245.605,41.992,-585.449,-88.379
1667501358.187,-215.332,37.598,-639.160,31.738
1667501358.191,121.094,39.062,-645.508,189.941
1667501358.195,146.973,36.133,-612.305,87.891
1667501358.199,-250.977,25.879,-658.691,-141.113
1667501358.203,-387.695,9.277,-787.598,-135.254
1667501358.207,-83.008,11.230,-742.188,78.125
1667501358.210,107.910,13.184,-647.949,92.285
1667501358.214,-182.129,0.977,-692.871,-104.492
1667501358.218,-416.504,-8.789,-719.727,-179.688
1667501358.222,-204.102,-2.441,-678.711,4.883
1667501358.226,82.520,-3.906,-683.594,115.723
1667501358.244,-115.234,-20.996,-712.891,-34.180
1667501358.248,-435.547,-19.531,-718.750,-166.504
1667501358.252,-338.379,-10.254,-687.012,-26.367
1667501358.256,-6.348,0.000,-692.871,92.773
1667501358.260,-57.129,-1.465,-754.883,-12.207
1667501358.264,-406.738,-6.836,-756.348,-158.691
1667501358.268,-437.012,0.977,-705.566,-90.820
1667501358.271,-114.746,9.277,-681.641,94.727
1667501358.275,-29.785,6.348,-715.820,87.402
1667501358.279,-379.395,4.883,-749.512,-95.215
1667501358.283,-542.480,20.996,-609.375,-131.836
1667501358.287,-280.762,18.555,-537.109,65.918
1667501358.304,-75.684,-3.906,-673.340,145.020
1667501358.308,-334.961,1.953,-765.137,-17.578
1667501358.312,-572.754,27.832,-560.059,-138.184
1667501358.316,-383.301,20.508,-563.477,16.113
1667501358.320,-95.703,12.695,-653.320,150.879
1667501358.324,-252.930,14.160,-673.828,31.250
1667501358.328,-546.387,15.137,-667.969,-113.770
1667501358.331,-458.984,23.438,-594.238,19.043
1667501358.335,-136.719,14.648,-704.590,232.422
1667501358.339,-164.551,19.531,-726.562,150.391
1667501358.343,-497.070,40.527,-525.391,-119.629
1667501358.347,-536.621,32.227,-559.082,-106.445
1667501358.334,-240.723,28.320,-603.516,118.164
1667501358.338,-116.699,32.715,-579.102,86.426
1667501358.342,-412.109,28.320,-547.852,-122.070
1667501358.346,-568.359,24.902,-536.621,-187.012
1667501358.350,-305.176,24.414,-572.754,-29.297
1667501358.354,-69.336,23.926,-585.938,26.367
1667501358.358,-293.945,22.461,-560.059,-151.367
1667501358.361,-542.969,16.602,-581.055,-221.191
1667501358.365,-409.668,10.254,-639.160,-5.859
1667501358.369,-132.812,20.508,-583.496,99.609
1667501358.373,-243.164,25.391,-526.367,-79.590
1667501358.377,-533.203,10.742,-640.625,-231.445
1667501358.379,-474.121,1.953,-809.082,-103.027
1667501358.383,-160.156,31.250,-625.977,62.500
1667501358.387,-113.770,44.434,-486.328,-42.480
1667501358.391,-416.504,29.785,-518.066,-243.164
1667501358.395,-436.523,29.297,-545.410,-149.414
1667501358.399,-363.281,25.391,-641.602,103.516
1667501358.403,-316.895,27.344,-600.098,67.871
1667501358.406,-277.832,20.508,-732.910,-131.836
1667501358.410,-491.699,26.855,-768.555,-177.246
1667501358.414,-595.215,49.805,-552.734,4.883
1667501358.418,-458.496,39.551,-608.398,95.215
1667501358.422,-488.281,31.738,-667.480,-102.051
1667501358.424,-647.461,40.527,-598.145,-230.957
1667501358.428,-474.609,43.945,-568.359,-80.566
1667501358.432,-182.617,38.574,-627.441,60.059
1667501358.436,-248.047,39.551,-629.395,-41.992
1667501358.440,-501.953,43.945,-551.270,-203.125
1667501358.444,-429.688,41.504,-559.082,-66.895
1667501358.448,-112.793,35.156,-592.773,138.672
1667501358.451,-45.410,10.742,-788.086,110.840
1667501358.455,-297.363,25.391,-713.867,-97.656
1667501358.459,-363.281,60.547,-427.734,-156.250
1667501358.463,-91.309,58.105,-535.156,35.645
1667501358.467,62.012,53.711,-592.773,28.809
1667501358.469,-156.738,60.547,-479.004,-181.641
1667501358.473,-309.570,60.059,-529.297,-254.395
1667501358.477,-139.160,62.012,-552.246,-62.500
1667501358.481,80.566,76.660,-490.234,53.223
1667501358.485,-23.438,81.543,-533.203,-101.562
1667501358.489,-235.840,81.055,-562.500,-272.949
1667501358.493,-146.484,83.008,-681.152,-125.488
1667501358.496,111.328,96.191,-685.547,57.617
1667501358.500,34.180,111.328,-465.332,-72.754
1667501358.504,-244.629,96.680,-486.328,-254.395
1667501358.508,-266.113,88.379,-504.883,-161.621
1667501358.512,-15.625,85.449,-457.031,24.902
1667501358.529,43.457,78.125,-469.727,-20.996
1667501358.533,-223.633,76.660,-458.984,-191.406
1667501358.537,-324.219,75.684,-446.289,-181.152
1667501358.541,-122.070,74.219,-431.152,34.180
1667501358.545,43.945,75.684,-470.215,107.422
1667501358.549,-132.812,75.195,-489.258,-90.332
1667501358.553,-302.734,57.129,-586.914,-186.035
1667501358.556,-164.551,62.500,-509.277,16.113
1667501358.560,59.082,72.266,-313.477,81.055
1667501358.564,-43.457,56.152,-441.406,-94.727
1667501358.568,-268.555,48.828,-470.703,-240.234
1667501358.572,-187.012,65.918,-239.746,-132.812
1667501358.558,95.703,58.105,-299.805,19.043
1667501358.562,97.656,44.922,-403.320,-82.031
1667501358.566,-131.836,51.758,-331.055,-271.484
1667501358.570,-125.000,64.453,-271.484,-196.777
1667501358.574,132.324,61.523,-356.934,20.996
1667501358.578,233.398,50.293,-430.176,-11.719
1667501358.582,-2.930,52.734,-410.645,-210.938
1667501358.585,-139.160,52.246,-400.879,-235.840
1667501358.589,28.809,52.734,-353.516,-35.645
1667501358.593,171.387,40.527,-558.594,36.621
1667501358.597,-32.227,46.875,-581.543,-127.441
1667501358.601,-226.562,64.941,-329.590,-248.047
1667501358.619,-113.770,56.641,-360.352,-30.273
1667501358.623,84.473,56.152,-422.363,116.699
1667501358.627,-21.973,54.688,-396.484,-43.945
1667501358.631,-244.629,54.199,-356.934,-178.223
1667501358.635,-198.242,49.316,-369.141,-47.852
1667501358.639,22.949,38.086,-434.082,121.582
1667501358.643,11.230,41.504,-424.805,19.531
1667501358.646,-218.750,46.875,-354.980,-178.223
1667501358.650,-243.652,42.969,-360.352,-127.441
1667501358.654,-39.062,25.879,-536.133,84.473
1667501358.658,33.203,39.062,-403.320,50.293
1667501358.662,-149.902,53.711,-215.820,-156.738
1667501358.665,-228.027,38.086,-310.547,-182.617
1667501358.669,-62.988,40.039,-331.543,25.391
1667501358.673,104.492,52.246,-267.578,54.199
1667501358.677,-22.461,45.898,-308.594,-111.816
1667501358.681,-198.730,30.273,-379.395,-185.059
1667501358.685,-122.559,30.762,-387.695,5.859
1667501358.689,59.082,37.109,-360.352,97.656
1667501358.692,-48.828,42.480,-317.383,-84.473
1667501358.696,-259.766,38.574,-486.816,-233.398
1667501358.700,-208.008,44.922,-500.977,-104.004
1667501358.704,-48.828,42.969,-345.215,-19.043
1667501358.708,-105.469,26.855,-398.926,-63.965
1667501358.709,-325.195,32.227,-343.262,-168.945
1667501358.713,-367.676,32.227,-275.391,-150.879
1667501358.717,-189.941,20.020,-294.434,83.984
1667501358.721,-104.492,4.395,-348.145,67.871
1667501358.725,-287.598,-3.906,-362.305,-83.496
1667501358.729,-380.371,-6.836,-364.258,-78.613
1667501358.733,-225.586,-11.719,-348.145,64.941
1667501358.736,-69.824,-17.578,-382.324,107.422
1667501358.740,-193.848,-41.016,-566.406,17.090
1667501358.744,-338.379,-33.691,-463.379,-83.496
1667501358.748,-220.703,-21.484,-216.797,24.902
1667501358.752,-21.484,-29.785,-339.844,164.062
1667501358.754,-50.781,-28.809,-377.930,104.004
1667501358.758,-192.383,-29.785,-279.297,-17.090
1667501358.762,-141.113,-27.344,-276.855,52.734
1667501358.766,55.664,-25.879,-324.707,193.359
1667501358.770,99.609,-20.996,-365.234,99.121
1667501358.774,-41.504,-20.020,-372.070,-48.340
1667501358.778,-64.453,-18.555,-295.898,2.930
1667501358.781,85.449,-25.879,-434.082,175.293
1667501358.785,165.527,-27.832,-494.141,122.070
1667501358.789,20.020,-9.277,-312.988,-61.523
1667501358.793,-62.500,-6.836,-354.492,-79.102
1667501358.797,49.805,-4.883,-354.004,112.793
1667501358.799,175.293,4.395,-307.129,152.344
1667501358.803,68.848,3.418,-269.043,-21.973
1667501358.807,-82.520,-6.348,-329.590,-125.000
1667501358.811,-32.715,-3.906,-343.750,19.043
1667501358.815,123.047,5.371,-274.414,126.465
1667501358.819,87.402,8.301,-351.562,14.160
1667501358.823,-83.008,7.324,-333.984,-140.625
1667501358.826,-77.637,-7.812,-494.629,-51.270
1667501358.830,73.730,12.695,-481.445,96.680
1667501358.834,109.375,33.691,-236.328,-6.348
1667501358.838,-39.062,16.113,-347.168,-154.785
1667501358.842,-80.566,13.184,-375.977,-137.695
1667501358.844,65.918,17.090,-290.039,46.387
1667501358.848,171.875,11.230,-339.844,44.434
1667501358.852,42.480,7.812,-368.164,-111.328
1667501358.856,-52.734,15.625,-321.777,-158.203
1667501358.860,44.922,20.996,-337.891,11.719
1667501358.864,157.227,14.648,-418.945,76.172
1667501358.868,68.359,7.812,-567.383,-35.645
1667501358.871,-70.312,21.484,-549.316,-157.227
1667501358.875,-22.949,40.527,-288.574,-59.570
1667501358.879,128.418,30.762,-334.961,80.078
1667501358.883,101.074,27.344,-410.645,-24.902
1667501358.887,-48.340,33.691,-313.965,-175.293
1667501358.889,-54.688,36.133,-231.445,-118.164
1667501358.893,83.496,29.785,-291.016,65.430
1667501358.897,124.023,18.066,-365.723,20.508
1667501358.901,-39.551,26.855,-312.988,-168.945
1667501358.905,-92.773,34.180,-268.066,-175.781
1667501358.909,24.414,18.555,-320.312,46.875
1667501358.913,107.422,10.254,-462.402,98.145
1667501358.916,-28.809,27.344,-391.113,-83.984
1667501358.920,-125.977,37.109,-224.609,-179.688
1667501358.924,-23.926,27.344,-307.617,24.414
1667501358.928,94.238,21.484,-413.086,135.742
1667501358.932,16.113,30.762,-296.875,-32.715
1667501358.934,-118.164,33.203,-294.922,-169.922
1667501358.938,-84.473,22.461,-332.520,-15.625
1667501358.942,53.223,20.508,-357.422,164.551
1667501358.946,29.297,23.926,-364.258,58.594
1667501358.950,-140.137,13.184,-397.461,-116.699
1667501358.954,-154.785,11.719,-429.688,-53.223
1667501358.958,-21.973,20.020,-395.508,170.410
1667501358.961,16.602,25.391,-349.121,120.605
1667501358.965,-108.887,30.273,-317.383,-85.449
1667501358.969,-154.297,17.578,-428.711,-100.586
1667501358.973,-45.898,12.695,-439.453,108.398
1667501358.977,65.918,19.043,-317.383,158.203
1667501358.994,-43.945,8.789,-304.688,-20.020
1667501358.998,-151.855,14.648,-325.195,-155.273
1667501359.002,-73.242,36.133,-289.062,8.301
1667501359.006,58.105,43.457,-266.602,133.301
1667501359.010,-6.836,36.133,-315.918,-27.344
1667501359.014,-149.902,32.227,-390.137,-202.148
1667501359.018,-99.121,42.969,-372.559,-100.586
1667501359.021,58.105,52.246,-358.398,104.004
1667501359.025,60.059,51.758,-471.680,24.414
1667501359.029,-98.145,47.363,-614.746,-161.621
1667501359.033,-125.000,70.801,-414.062,-145.508
1667501359.037,13.672,86.426,-288.574,71.289
1667501359.039,59.570,74.707,-428.223,90.820
1667501359.043,-91.797,81.055,-407.715,-102.051
1667501359.047,-164.062,87.402,-321.289,-192.383
1667501359.051,-55.664,82.031,-307.129,-8.301
1667501359.055,39.062,83.496,-358.887,73.242
1667501359.059,-100.586,80.078,-458.008,-92.773
1667501359.063,-216.309,85.449,-407.227,-200.195
1667501359.066,-126.953,92.773,-254.395,-26.855
1667501359.070,23.438,69.824,-459.473,153.809
1667501359.074,-56.641,67.383,-536.133,14.648
1667501359.078,-208.008,82.031,-332.031,-196.777
1667501359.082,-146.484,70.801,-323.730,-105.469
1667501359.084,37.109,65.430,-333.984,117.188
1667501359.088,65.918,66.406,-327.148,56.641
1667501359.092,-119.141,56.152,-339.844,-152.344
1667501359.096,-169.922,46.875,-349.609,-151.855
1667501359.100,-26.367,45.898,-316.406,94.727
1667501359.104,58.594,38.574,-364.746,116.211
1667501359.108,-98.145,35.156,-374.023,-100.098
1667501359.111,-187.012,38.086,-369.141,-169.434
1667501359.115,-58.105,30.762,-542.480,80.566
1667501359.119,64.941,43.945,-501.465,179.688
1667501359.123,-51.758,54.688,-311.523,-21.973
1667501359.127,-183.105,41.016,-422.852,-149.902
1667501359.129,-121.094,48.828,-415.527,20.020
1667501359.133,35.156,52.246,-293.945,190.918
1667501359.137,-0.977,39.551,-353.516,61.035
1667501359.141,-178.223,37.598,-380.859,-127.441
1667501359.145,-166.992,40.527,-348.633,-48.828
1667501359.149,-6.836,37.109,-367.188,186.035
1667501359.153,17.578,39.062,-360.352,135.254
1667501359.156,-161.621,25.391,-500.000,-65.918
1667501359.160,-215.332,29.297,-497.070,-77.148
1667501359.164,-82.031,49.316,-279.297,134.766
1667501359.168,19.531,38.086,-323.242,159.180
1667501359.172,-132.324,30.273,-377.441,-50.781
1667501359.174,-251.465,34.668,-308.105,-148.926
1667501359.178,-142.090,33.203,-261.230,61.523
1667501359.182,17.090,24.902,-339.844,169.922
1667501359.186,-75.195,22.949,-341.797,-21.484
1667501359.190,-224.121,26.855,-316.895,-154.297
1667501359.194,-157.715,25.879,-345.215,13.184
1667501359.198,6.836,26.855,-350.098,175.781
1667501359.201,-8.301,16.602,-564.453,77.637
1667501359.205,-209.961,30.273,-504.883,-108.887
1667501359.209,-209.961,52.246,-238.281,-77.637
1667501359.213,-24.902,38.086,-333.984,144.043
1667501359.217,21.973,28.320,-432.129,100.098
1667501359.219,-171.875,35.645,-333.008,-106.934
1667501359.223,-247.559,35.156,-281.738,-121.094
1667501359.227,-103.027,23.926,-312.500,119.629
1667501359.231,-1.465,24.414,-330.078,140.625
1667501359.235,-148.926,24.414,-374.512,-45.898
1667501359.239,-269.043,23.926,-384.277,-115.723
1667501359.243,-170.410,16.602,-480.957,89.844
1667501359.246,-19.043,18.555,-503.906,180.176
1667501359.250,-102.051,36.133,-297.363,-19.531
1667501359.254,-253.906,29.785,-295.898,-158.691
1667501359.258,-208.984,27.832,-297.852,-16.602
1667501359.262,-45.410,30.273,-244.141,142.578
1667501359.264,-54.688,28.809,-246.094,14.648
1667501359.268,-251.465,20.508,-274.414,-149.414
1667501359.272,-271.484,11.719,-276.855,-104.492
1667501359.276,-99.121,16.602,-233.398,95.703
1667501359.280,-26.367,10.254,-241.699,32.227
1667501359.284,-206.055,-1.465,-346.191,-162.109
1667501359.288,-291.992,-7.324,-463.867,-155.762
1667501359.291,-156.738,10.742,-337.891,56.641
1667501359.295,-20.020,23.438,-225.586,56.152
1667501359.299,-142.578,9.277,-375.488,-122.559
1667501359.303,-287.598,8.301,-451.660,-192.871
1667501359.307,-198.242,25.879,-253.418,-23.926
1667501359.309,-17.090,18.555,-298.828,78.613
1667501359.313,-97.168,3.906,-407.227,-71.777
1667501359.317,-294.922,15.625,-344.238,-194.336
1667501359.321,-251.953,27.832,-242.676,-71.289
1667501359.325,-52.734,19.531,-301.758,101.074
1667501359.329,-40.039,6.836,-432.129,-11.230
1667501359.333,-263.672,11.230,-370.605,-194.824
1667501359.336,-303.223,22.461,-268.555,-175.781
1667501359.340,-106.445,19.531,-279.785,28.320
1667501359.344,5.371,9.766,-454.102,-2.441
1667501359.348,-179.199,15.137,-439.941,-184.082
1667501359.352,-286.621,20.020,-255.859,-222.656
1667501359.369,-140.137,14.648,-238.281,9.766
1667501359.373,-1.465,12.207,-316.406,38.574
1667501359.377,-127.441,10.254,-379.395,-150.391
1667501359.381,-264.648,14.160,-338.379,-214.844
1667501359.385,-169.922,16.602,-274.414,-31.250
1667501359.389,25.879,11.230,-335.938,83.008
1667501359.393,-29.785,12.207,-431.152,-84.473
1667501359.396,-229.980,20.020,-392.578,-221.680
1667501359.400,-201.172,20.996,-343.262,-102.051
1667501359.404,8.789,6.836,-510.254,108.887
1667501359.408,52.246,26.855,-430.664,-30.273
1667501359.412,-161.621,35.156,-268.066,-215.332
1667501359.429,-223.145,19.531,-344.727,-157.715
1667501359.433,-46.875,20.508,-354.492,64.453
1667501359.437,63.477,27.344,-289.551,19.531
1667501359.441,-113.770,27.832,-333.008,-155.273
1667501359.445,-240.723,20.508,-376.465,-173.828
1667501359.449,-119.141,21.484,-327.637,52.246
1667501359.453,42.480,25.879,-370.605,96.680
1667501359.456,-73.242,36.133,-358.398,-106.934
1667501359.460,-251.953,29.785,-484.375,-178.711
1667501359.464,-172.852,30.762,-468.750,-11.230
1667501359.468,29.297,47.852,-224.609,82.520
1667501359.472,-5.371,38.086,-322.754,-68.359
1667501359.474,-218.262,34.180,-357.910,-187.988
1667501359.478,-212.402,36.133,-277.832,-99.121
1667501359.482,-6.348,40.527,-251.465,83.008
1667501359.486,58.594,41.016,-291.504,-15.137
1667501359.490,-149.902,35.156,-335.938,-167.480
1667501359.494,-223.633,35.156,-338.379,-132.324
1667501359.498,-32.715,40.527,-299.805,100.586
1667501359.501,119.141,38.086,-339.355,70.801
1667501359.505,-62.012,41.504,-386.230,-130.371
1667501359.509,-221.680,52.246,-271.973,-166.992
1667501359.513,-83.008,49.316,-200.684,49.316
1667501359.517,141.602,40.527,-355.469,112.305
1667501359.504,41.992,25.879,-620.117,-42.480
1667501359.508,-202.148,42.969,-410.645,-150.879
1667501359.512,-143.555,54.199,-203.125,0.488
1667501359.516,86.914,40.527,-275.391,154.785
1667501359.520,71.289,38.086,-283.203,-13.184
1667501359.524,-171.387,40.527,-351.562,-144.043
1667501359.528,-207.520,44.434,-343.262,-47.852
1667501359.531,14.648,41.016,-327.148,164.062
1667501359.535,102.539,46.875,-366.211,58.105
1667501359.539,-127.441,45.898,-353.516,-125.000
1667501359.543,-235.352,39.062,-327.637,-100.098
1667501359.547,-54.199,37.598,-440.430,137.695
1667501359.549,110.840,50.781,-428.223,122.070
1667501359.553,-61.035,60.547,-253.418,-77.148
1667501359.557,-248.047,50.293,-301.758,-122.070
1667501359.561,-138.672,53.223,-229.980,77.148
1667501359.565,86.914,55.176,-245.605,136.230
1667501359.569,15.137,48.828,-353.516,-54.199
1667501359.573,-220.215,51.758,-313.965,-155.273
1667501359.576,-175.781,45.410,-459.473,20.996
1667501359.580,83.496,65.430,-431.152,183.105
1667501359.584,116.699,87.402,-183.105,-3.418
1667501359.588,-145.996,79.590,-243.164,-146.484
1667501359.592,-197.266,77.148,-302.734,-69.336
1667501359.594,54.688,84.961,-207.520,169.434
1667501359.598,194.336,92.773,-201.660,105.957
1667501359.602,-43.945,89.844,-285.156,-90.332
1667501359.606,-227.539,96.191,-281.250,-120.605
1667501359.610,-18.555,96.191,-229.492,138.672
1667501359.614,272.461,96.680,-223.145,239.746
1667501359.618,67.871,86.426,-425.781,16.602
1667501359.621,-258.789,88.867,-467.773,-143.555
1667501359.625,-141.113,115.234,-228.516,48.340
1667501359.629,212.891,116.699,-227.051,255.859
1667501359.633,161.621,111.328,-341.309,72.266
1667501359.637,-217.285,115.723,-331.543,-187.988
1667501359.639,-218.750,124.512,-236.328,-88.867
1667501359.643,170.898,119.629,-235.840,230.957
1667501359.647,281.250,116.699,-285.156,150.391
1667501359.651,-130.371,123.047,-277.832,-170.898
1667501359.655,-265.137,120.605,-267.090,-178.223
1667501359.659,81.543,116.211,-267.578,179.199
1667501359.663,334.961,113.281,-289.062,229.980
1667501359.666,14.648,120.605,-262.207,-90.820
1667501359.670,-270.996,134.277,-197.754,-247.070
1667501359.674,-12.207,132.324,-231.934,81.543
1667501359.678,364.746,126.465,-284.668,276.855
1667501359.682,157.227,134.277,-206.543,-8.789
1667501359.683,-242.188,134.766,-225.098,-258.301
1667501359.687,-130.859,131.836,-259.766,-41.504
1667501359.691,307.617,142.090,-102.539,278.809
1667501359.695,314.941,146.973,-9.277,123.535
1667501359.699,-142.578,129.883,-248.047,-221.680
1667501359.703,-208.984,125.977,-332.031,-155.273
1667501359.707,219.727,144.531,-207.031,238.770
1667501359.710,401.367,157.227,-50.293,217.773
1667501359.714,-41.504,146.484,-145.508,-154.297
1667501359.718,-261.719,131.348,-448.730,-211.914
1667501359.722,81.055,148.438,-330.078,166.992
1667501359.726,402.832,165.039,1.465,264.160
1667501359.744,74.219,153.320,-161.621,-57.129
1667501359.748,-294.434,148.438,-360.840,-253.418
1667501359.752,-67.383,150.879,-221.680,41.504
1667501359.756,384.277,153.320,12.207,306.641
1667501359.760,218.262,145.020,-96.191,50.293
1667501359.764,-240.234,138.672,-323.242,-256.836
1667501359.768,-170.898,147.949,-246.582,-79.590
1667501359.771,279.785,155.762,-164.062,294.434
1667501359.775,320.312,148.438,-245.117,174.316
1667501359.779,-149.414,135.254,-476.562,-175.781
1667501359.783,-248.047,153.809,-359.863,-166.992
1667501359.787,174.805,167.480,10.742,198.242
1667501359.788,431.641,159.180,-56.641,242.188
1667501359.792,17.090,148.926,-288.574,-131.348
1667501359.796,-236.816,150.879,-244.629,-247.070
1667501359.800,108.398,151.855,-175.781,131.348
1667501359.804,474.609,153.320,-182.129,303.711
1667501359.808,174.316,155.762,-292.969,-17.090
1667501359.812,-229.492,151.855,-342.285,-267.090
1667501359.815,-55.176,163.086,-193.359,10.254
1667501359.819,414.062,149.902,-357.910,351.074
1667501359.823,286.621,143.066,-489.746,138.184
1667501359.827,-217.773,158.691,-281.250,-238.281
1667501359.831,-203.125,151.855,-280.273,-98.633
1667501359.833,241.699,159.668,-260.742,290.039
1667501359.837,341.309,165.527,-220.703,209.961
1667501359.841,-128.906,153.809,-289.551,-166.992
1667501359.845,-271.484,153.320,-307.617,-179.199
1667501359.849,124.023,153.320,-246.582,206.543
1667501359.853,399.902,150.391,-254.883,271.484
1667501359.857,7.324,152.832,-321.777,-63.965
1667501359.860,-302.246,151.367,-328.613,-217.773
1667501359.864,-14.160,142.578,-460.938,147.949
1667501359.868,379.883,162.109,-363.770,360.352
1667501359.872,126.953,166.504,-203.125,29.297
1667501359.876,-281.250,141.602,-412.598,-227.051
1667501359.878,-139.160,151.855,-384.766,20.020
1667501359.882,319.824,172.363,-41.992,344.238
1667501359.886,268.066,161.621,-25.879,158.691
1667501359.890,-221.680,145.996,-255.859,-200.195
1667501359.894,-244.629,140.625,-307.129,-102.051
1667501359.898,212.891,147.949,-243.652,292.480
1667501359.902,372.559,156.250,-194.336,262.207
1667501359.905,-88.379,138.672,-399.414,-105.957
1667501359.909,-283.691,135.742,-472.168,-170.898
1667501359.913,72.266,154.785,-172.852,197.266
1667501359.917,388.672,147.461,-92.285,339.844
1667501359.921,57.129,145.020,-260.254,12.207
1667501359.924,-261.230,150.391,-316.895,-191.406
1667501359.928,-29.297,141.113,-242.188,122.070
1667501359.932,363.770,125.000,-255.371,374.023
1667501359.936,149.902,125.000,-261.719,83.496
1667501359.940,-292.969,122.070,-259.766,-233.398
1667501359.944,-202.148,108.398,-294.434,-35.156
1667501359.948,240.723,105.957,-256.348,314.941
1667501359.951,242.676,86.426,-436.035,180.664
1667501359.955,-230.469,92.285,-476.562,-212.402
1667501359.959,-301.270,111.816,-234.375,-188.965
1667501359.963,112.793,102.051,-261.719,226.074
1667501359.967,310.059,101.074,-284.180,239.258
1667501359.969,-116.211,104.492,-224.121,-151.367
1667501359.973,-332.520,104.004,-275.391,-248.047
1667501359.977,6.836,106.934,-262.207,131.348
1667501359.981,341.797,113.281,-214.844,295.898
1667501359.985,28.320,111.328,-270.508,-39.551
1667501359.989,-325.684,109.375,-303.223,-269.043
1667501359.993,-106.934,107.910,-394.043,42.480
1667501359.996,325.195,114.746,-337.891,341.309
1667501360.000,166.992,126.953,-133.789,78.613
1667501360.004,-279.297,116.211,-266.602,-260.254
1667501360.008,-224.609,111.816,-315.918,-101.562
1667501360.012,225.098,116.211,-105.957,279.297
1667501360.014,293.457,114.746,-19.531,193.359
1667501360.018,-174.316,103.516,-204.102,-199.219
1667501360.022,-282.227,99.121,-272.461,-207.031
1667501360.026,115.234,111.328,-63.965,187.012
1667501360.030,365.234,118.164,27.832,255.371
1667501360.034,-32.227,102.051,-266.602,-114.258
1667501360.038,-303.711,93.750,-383.789,-252.441
1667501360.041,-20.508,106.445,-258.301,98.633
1667501360.045,337.891,118.164,-42.969,302.246
1667501360.049,81.055,112.305,-55.664,-6.348
1667501360.053,-306.641,97.656,-371.094,-271.973
1667501360.057,-155.273,117.676,-225.586,-22.461
1667501360.058,287.109,125.488,44.434,309.082
1667501360.062,191.895,108.398,-74.707,120.117
1667501360.066,-266.113,104.492,-289.062,-260.742
1667501360.070,-256.836,113.770,-263.184,-166.992
1667501360.074,179.199,117.676,-132.812,236.816
1667501360.078,295.898,101.562,-274.414,220.703
1667501360.082,-172.852,102.051,-394.531,-179.199
1667501360.085,-317.871,116.699,-226.074,-246.094
1667501360.089,66.406,113.770,-190.430,162.109
1667501360.093,329.102,103.027,-253.906,277.832
1667501360.097,-74.219,104.492,-266.113,-132.324
1667501360.101,-392.578,105.469,-234.863,-361.816
1667501360.119,-139.648,95.215,-187.012,-16.602
1667501360.123,254.883,104.492,-139.648,254.395
1667501360.127,32.715,110.352,-185.059,-45.410
1667501360.131,-388.672,102.051,-231.445,-353.516
1667501360.135,-291.016,94.238,-228.027,-118.652
1667501360.139,160.156,89.355,-221.680,267.578
1667501360.143,131.348,89.844,-250.488,104.980
1667501360.146,-345.215,91.309,-255.371,-287.598
1667501360.150,-371.582,89.844,-220.703,-198.730
1667501360.154,68.848,84.961,-320.801,251.465
1667501360.158,228.027,97.656,-238.770,255.371
1667501360.162,-223.633,99.609,-186.035,-175.293
1667501360.164,-423.828,86.914,-345.215,-264.160
1667501360.168,-76.660,90.820,-184.570,139.648
1667501360.172,255.371,104.004,79.590,330.078
1667501360.176,-93.750,101.074,-85.938,-29.785
1667501360.180,-453.613,94.238,-305.664,-288.574
1667501360.184,-224.121,97.168,-266.113,33.203
1667501360.188,206.543,103.027,-41.992,344.727
1667501360.191,26.855,102.051,35.156,65.918
1667501360.195,-416.016,84.961,-339.355,-257.324
1667501360.199,-335.938,94.727,-364.746,-56.152
1667501360.203,135.742,112.305,57.617,322.266
1667501360.207,160.156,98.145,45.898,212.402
1667501360.207,160.156,98.145,45.898,212.402,0
1667501360.208,-327.637,93.750,-189.453,-197.754,0
1667501360.212,-408.691,92.773,-224.609,-167.480,0
1667501360.216,25.879,97.168,-22.461,272.461,0
1667501360.220,254.883,94.238,75.684,335.449,0
1667501360.224,-188.477,85.449,-100.098,-93.750,0
1667501360.228,-442.383,85.449,-245.117,-253.906,0
1667501360.232,-101.074,93.750,-134.277,129.883,0
1667501360.235,282.715,95.703,-0.977,362.793,0
1667501360.239,-34.180,91.797,-160.156,6.836,0
1667501360.243,-441.895,98.145,-126.953,-298.340,0
1667501360.247,-234.375,101.074,95.215,-11.230,0
1667501360.251,255.859,96.191,42.480,354.492,0
1667501360.254,95.703,78.613,-288.574,127.930,0
1667501360.258,-431.641,89.844,-264.160,-316.895,0
1667501360.262,-407.227,92.285,-8.301,-205.566,0
1667501360.266,129.883,84.961,36.133,295.410,0
1667501360.270,218.750,83.984,4.395,256.348,0
1667501360.274,-380.859,79.102,-147.949,-273.438,0
1667501360.278,-550.293,82.031,-210.938,-346.680,0
1667501360.281,-68.848,78.613,-219.238,158.691,0
1667501360.285,250.977,81.543,-119.629,333.008,0
1667501360.289,-244.629,84.961,37.598,-165.039,0
1667501360.293,-597.168,80.566,-89.355,-421.875,0
1667501360.297,-243.652,77.148,-234.375,11.230,0
1667501360.298,232.910,89.844,-80.078,350.586,0
1667501360.302,-104.980,88.867,39.551,-48.340,0
1667501360.306,-624.023,69.336,-96.680,-443.359,0
1667501360.310,-445.801,73.730,-67.383,-167.480,0
1667501360.314,130.371,88.379,75.684,281.738,0
1667501360.318,31.250,82.031,-88.867,75.195,0
1667501360.322,-581.543,72.754,-287.598,-469.727,0
1667501360.325,-602.539,60.547,-429.199,-375.488,0
1667501360.329,-50.781,74.219,-235.840,140.137,0
1667501360.333,120.605,85.938,141.602,108.398,0
1667501360.337,-466.309,67.383,-131.836,-429.688,0
1667501360.341,-706.055,72.754,-270.996,-576.172,0
1667501360.344,-271.973,82.520,29.785,-125.977,0
1667501360.348,88.867,73.730,127.930,88.379,0
1667501360.352,-323.242,61.035,-142.090,-333.496,0
1667501360.356,-683.105,68.359,-279.297,-575.684,0
1667501360.360,-375.000,77.637,-17.578,-197.266,0
1667501360.364,114.746,71.777,52.246,137.207,0
1667501360.368,-124.023,56.152,-300.293,-147.461,0
1667501360.371,-609.375,69.824,-371.094,-531.738,0
1667501360.375,-483.887,83.008,-70.801,-343.262,0
1667501360.379,44.922,75.195,64.941,104.492,0
1667501360.383,29.785,71.777,-120.605,-2.930,0
1667501360.387,-497.070,78.613,-227.539,-447.754,0
1667501360.392,-534.180,89.355,29.297,-390.137,0
1667501360.396,-30.762,85.938,64.941,78.613,0
1667501360.400,189.453,83.496,41.016,141.113,0
1667501360.404,-294.922,80.566,29.297,-289.551,0
1667501360.408,-523.926,82.031,5.859,-417.969,0
1667501360.412,-130.371,78.125,41.992,-8.301,0
1667501360.416,255.859,72.754,-70.801,228.516,0
1667501360.419,-95.215,78.613,-83.496,-134.766,0
1667501360.423,-473.145,86.914,70.312,-425.293,0
1667501360.427,-212.891,80.566,24.902,-112.793,0
1667501360.431,283.691,74.219,-11.719,243.164,0
1667501360.435,104.004,84.473,74.219,-11.230,0
1667501360.434,-389.648,82.031,81.055,-388.184,0
1667501360.438,-307.129,69.824,31.250,-212.891,0
1667501360.442,220.703,77.148,93.750,209.473,0
1667501360.446,282.715,82.520,135.254,126.953,0
1667501360.450,-247.070,75.195,114.746,-307.617,0
1667501360.454,-355.957,63.477,-107.422,-291.992,0
1667501360.458,124.512,75.195,-104.492,149.414,0
1667501360.461,387.207,92.773,181.152,212.402,0
1667501360.465,-101.074,77.637,74.707,-220.215,0
1667501360.469,-395.996,71.777,-72.266,-379.395,0
1667501360.473,-30.762,78.125,-15.625,14.648,0
1667501360.477,387.207,83.008,129.395,279.297,0
1667501360.494,39.551,73.730,36.621,-71.777,0
1667501360.498,-416.016,62.988,-193.848,-382.324,0
1667501360.502,-193.848,72.266,-72.266,-99.121,0
1667501360.506,336.426,79.590,163.574,275.391,0
1667501360.510,177.734,67.383,56.641,51.758,0
1667501360.514,-366.211,52.734,-199.219,-352.051,0
1667501360.518,-325.195,61.035,-205.566,-221.191,0
1667501360.521,216.309,70.801,33.691,199.707,0
1667501360.525,305.664,63.965,72.266,153.320,0
1667501360.529,-272.949,41.504,-331.543,-289.062,0
1667501360.533,-432.617,54.199,-245.605,-357.422,0
1667501360.537,58.594,75.684,171.387,61.523,0
1667501360.539,384.277,59.570,-2.930,216.309,0
1667501360.543,-105.469,53.223,-195.312,-208.984,0
1667501360.547,-453.125,62.988,-48.340,-424.805,0
1667501360.551,-98.633,62.012,11.719,-52.246,0
1667501360.555,353.516,54.199,19.531,229.980,0
1667501360.559,28.809,42.969,-40.039,-102.539,0
1667501360.563,-448.242,49.805,-136.719,-454.590,0
1667501360.566,-251.953,65.430,18.066,-211.914,0
1667501360.570,294.922,52.734,-113.281,208.496,0
1667501360.574,183.594,48.340,-231.445,22.949,0
1667501360.578,-400.391,65.430,38.574,-435.059,0
1667501360.582,-402.344,59.082,38.086,-344.238,0
1667501360.584,152.344,55.664,69.336,106.445,0
1667501360.588,321.289,57.617,94.727,121.094,0
1667501360.592,-253.906,47.363,-111.816,-327.148,0
1667501360.596,-472.168,47.852,-257.324,-410.156,0
1667501360.600,-2.441,51.758,-122.070,25.391,0
1667501360.604,381.348,42.969,-114.258,209.961,0
1667501360.608,-70.312,33.691,-271.973,-183.594,0
1667501360.611,-494.629,40.039,-277.344,-436.035,0
1667501360.615,-181.152,48.340,-433.105,-87.402,0
1667501360.619,342.285,69.336,-256.836,246.582,0
1667501360.623,52.246,80.566,20.996,-82.520,0
1667501360.627,-483.398,70.801,-243.652,-448.730,0
1667501360.629,-314.453,79.590,-319.824,-213.379,0
1667501360.633,281.250,90.820,-47.363,215.820,0
1667501360.637,239.746,81.055,-104.980,77.637,0
1667501360.641,-386.719,74.219,-346.680,-392.090,0
1667501360.645,-449.219,85.449,-283.203,-366.211,0
1667501360.649,126.953,88.867,-258.789,108.887,0
1667501360.653,374.512,88.867,-217.285,189.453,0
1667501360.656,-213.379,72.754,-390.625,-265.137,0
1667501360.660,-497.559,67.871,-474.121,-415.039,0
1667501360.664,-21.484,87.891,-157.227,-4.395,0
1667501360.668,440.430,80.078,-47.852,249.023,0
1667501360.672,-18.066,65.918,-217.773,-161.621,0
1667501360.689,-506.836,59.570,-342.773,-476.074,0
1667501360.693,-186.035,63.477,-244.629,-141.602,0
1667501360.697,414.551,67.383,-108.398,260.742,0
1667501360.701,164.062,58.105,-207.520,-15.625,0
1667501360.705,-458.496,59.082,-334.961,-458.496,0
1667501360.709,-348.145,67.383,-340.820,-278.320,0
1667501360.713,297.852,65.918,-282.227,199.707,0
1667501360.716,335.938,45.410,-399.902,121.094,0
1667501360.720,-352.539,52.734,-423.828,-405.273,0
1667501360.724,-481.934,63.477,-308.105,-423.828,0
1667501360.728,109.375,54.688,-375.000,78.613,0
1667501360.732,419.922,52.246,-415.527,209.961,0
1667501360.719,-176.270,58.594,-311.523,-279.785,0
1667501360.723,-526.855,61.523,-318.359,-480.469,0
1667501360.727,-71.289,55.664,-306.641,-55.664,0
1667501360.731,448.242,55.664,-212.402,234.863,0
1667501360.735,40.527,50.781,-276.855,-150.879,0
1667501360.739,-504.883,42.480,-442.383,-504.395,0
1667501360.743,-241.211,49.316,-381.348,-190.430,0
1667501360.746,388.672,54.199,-220.215,241.699,0
1667501360.750,207.520,47.852,-244.629,0.488,0
1667501360.754,-466.309,43.457,-313.477,-473.145,0
1667501360.758,-428.711,29.785,-480.957,-317.383,0
1667501360.762,222.168,40.527,-341.797,195.801,0
1667501360.764,344.238,58.105,-67.871,151.367,0
1667501360.768,-349.121,39.062,-323.242,-368.652,0
1667501360.772,-562.988,35.645,-410.645,-431.152,0
1667501360.776,27.344,51.270,-252.441,75.684,0
1667501360.780,406.738,54.199,-236.328,260.742,0
1667501360.784,-190.430,39.062,-412.109,-214.355,0
1667501360.788,-621.094,30.273,-483.887,-440.430,0
1667501360.791,-194.336,43.945,-345.215,-28.809,0
1667501360.795,417.480,48.340,-174.316,345.215,0
1667501360.799,38.574,28.320,-364.258,1.953,0
1667501360.803,-621.582,37.598,-506.348,-440.918,0
1667501360.807,-412.109,66.895,-307.129,-202.148,0
1667501360.809,322.266,70.801,-204.102,306.641,0
1667501360.813,209.961,59.082,-309.570,127.441,0
1667501360.817,-546.387,55.176,-454.590,-412.598,0
1667501360.821,-574.707,66.895,-397.949,-331.055,0
1667501360.825,111.816,79.102,-253.418,189.941,0
1667501360.829,327.637,67.871,-340.820,236.816,0
1667501360.833,-397.949,64.453,-476.562,-320.801,0
1667501360.836,-701.172,77.148,-335.449,-482.910,0
1667501360.840,-119.141,78.613,-245.605,11.719,0
1667501360.844,357.422,73.242,-266.113,261.230,0
1667501360.848,-207.520,67.871,-345.703,-208.984,0
1667501360.852,-728.027,64.941,-391.602,-523.926,0
1667501360.869,-337.402,59.570,-323.242,-124.512,0
1667501360.873,313.965,64.941,-233.887,280.273,0
1667501360.877,-23.926,59.082,-293.457,-59.082,0
1667501360.881,-729.004,46.387,-409.668,-512.207,0
1667501360.885,-536.621,43.945,-396.973,-268.555,0
1667501360.889,218.750,48.828,-317.871,255.859,0
1667501360.893,160.156,51.758,-345.215,101.562,0
1667501360.896,-611.816,42.480,-473.145,-445.801,0
1667501360.900,-700.195,46.387,-484.375,-402.344,0
1667501360.904,1.953,48.340,-502.930,157.715,0
1667501360.908,307.617,59.570,-417.969,243.652,0
1667501360.912,-384.766,61.035,-353.516,-312.012,0
1667501360.913,-746.582,48.340,-478.516,-470.215,0
1667501360.917,-190.918,46.875,-381.836,0.977,0
1667501360.921,363.770,48.340,-214.355,265.137,0
1667501360.925,-156.250,38.574,-338.867,-166.016,0
1667501360.929,-738.770,32.227,-431.152,-501.953,0
1667501360.933,-378.418,37.598,-388.672,-149.902,0
1667501360.937,334.961,48.828,-265.625,270.020,0
1667501360.940,81.543,42.480,-302.246,-18.066,0
1667501360.944,-651.367,16.602,-583.008,-464.355,0
1667501360.948,-561.523,26.855,-539.062,-298.828,0
1667501360.952,205.078,55.664,-173.340,186.035,0
1667501360.956,286.621,46.387,-269.531,119.629,0
1667501360.989,-505.371,34.180,-467.285,-424.316,0
1667501360.993,-694.336,36.621,-381.836,-454.102,0
1667501360.997,6.836,46.387,-249.023,77.148,0
1667501361.001,416.016,47.363,-219.727,231.934,0
1667501361.005,-300.781,33.203,-389.648,-288.086,0
1667501361.009,-742.188,29.785,-479.004,-506.348,0
1667501361.013,-185.547,33.203,-360.840,-53.223,0
1667501361.016,457.031,28.320,-287.598,302.734,0
1667501361.020,-57.617,24.414,-377.441,-145.508,0
1667501361.024,-777.832,25.879,-415.527,-595.703,0
1667501361.028,-443.848,29.297,-331.055,-249.023,0
1667501361.032,382.812,29.297,-305.176,281.250,0
1667501361.004,175.781,17.578,-519.531,50.293,0
1667501361.008,-682.129,30.273,-477.051,-505.371,0
1667501361.012,-647.461,37.109,-346.680,-365.723,0
1667501361.016,187.012,43.457,-241.699,214.355,0
1667501361.020,361.328,39.551,-255.371,181.152,0
1667501361.024,-477.539,25.879,-457.031,-404.785,0
1667501361.028,-733.887,24.902,-479.004,-475.586,0
1667501361.031,-8.301,34.668,-345.215,67.383,0
1667501361.035,491.211,45.410,-250.977,284.180,0
1667501361.039,-208.984,37.109,-332.031,-242.676,0
1667501361.043,-746.582,27.832,-435.547,-521.484,0
1667501361.047,-223.633,28.809,-383.789,-71.777,0
1667501361.049,485.840,38.574,-265.625,307.617,0
1667501361.053,49.316,32.227,-341.309,-93.750,0
1667501361.057,-692.871,22.461,-431.641,-520.020,0
1667501361.061,-431.152,20.508,-485.352,-208.496,0
1667501361.065,416.504,31.738,-309.570,286.133,0
1667501361.069,329.590,27.344,-296.387,63.477,0
1667501361.073,-533.691,11.719,-452.637,-477.539,0
1667501361.076,-575.684,0.000,-604.004,-358.398,0
1667501361.080,239.746,19.043,-413.086,178.711,0
1667501361.084,511.230,42.480,-138.184,185.059,0
1667501361.088,-314.453,28.320,-413.086,-349.609,0
1667501361.092,-677.734,21.973,-453.125,-456.055,0
1667501361.094,-9.766,35.156,-245.117,46.387,0
1667501361.098,550.293,38.574,-190.918,285.156,0
1667501361.102,-99.609,20.020,-392.578,-185.547,0
1667501361.106,-730.957,17.578,-475.098,-497.070,0
1667501361.110,-271.484,28.320,-346.191,-94.727,0
1667501361.114,505.859,33.203,-290.527,325.684,0
1667501361.118,135.742,21.973,-496.582,-14.160,0
1667501361.121,-670.410,21.484,-602.051,-480.469,0
1667501361.125,-483.398,43.945,-320.801,-273.926,0
1667501361.129,381.348,48.340,-201.172,240.234,0
1667501361.133,369.629,38.574,-279.785,104.980,0
1667501361.137,-515.137,33.691,-411.621,-445.801,0
1667501361.139,-649.414,35.156,-390.137,-421.387,0
1667501361.143,143.066,39.062,-248.535,86.914,0
1667501361.147,500.000,37.109,-232.910,168.945,0
1667501361.151,-281.250,26.855,-339.844,-353.516,0
1667501361.155,-708.984,23.438,-390.625,-518.555,0
1667501361.159,-86.914,27.344,-323.242,-62.500,0
1667501361.163,541.016,25.391,-320.801,212.402,0
1667501361.166,-23.438,25.391,-399.414,-206.055,0
1667501361.170,-685.547,33.203,-377.441,-536.621,0
1667501361.174,-291.016,30.762,-330.078,-177.246,0
1667501361.178,502.441,25.879,-295.410,239.258,0
1667501361.182,226.562,38.086,-224.609,-42.480,0
1667501361.184,-602.539,46.875,-295.410,-489.746,0
1667501361.188,-525.879,43.457,-385.254,-317.871,0
1667501361.192,313.965,50.781,-280.762,151.367,0
1667501361.196,411.621,63.477,-199.219,62.988,0
1667501361.200,-420.410,54.688,-390.625,-397.949,0
1667501361.204,-635.254,42.480,-520.508,-374.512,0
1667501361.208,55.176,57.617,-345.215,64.941,0
1667501361.211,473.145,69.336,-130.859,159.180,0
1667501361.215,-237.305,60.547,-282.715,-287.109,0
1667501361.219,-728.516,50.781,-410.156,-445.312,0
1667501361.223,-193.359,53.711,-285.156,-34.668,0
1667501361.227,453.613,57.617,-156.738,235.352,0
1667501361.244,-53.223,39.062,-292.480,-127.441,0
1667501361.248,-763.672,34.180,-392.090,-462.891,0
1667501361.252,-455.566,47.852,-313.477,-171.875,0
1667501361.256,340.332,54.688,-109.863,230.469,0
1667501361.260,149.902,46.875,-168.457,15.137,0
1667501361.264,-685.059,32.227,-441.406,-417.969,0
1667501361.268,-680.176,38.086,-422.363,-276.855,0
1667501361.271,135.254,51.758,-227.539,208.984,0
1667501361.275,318.359,43.945,-179.199,169.922,0
1667501361.279,-525.391,13.672,-561.523,-291.016,0
1667501361.283,-816.895,21.973,-536.133,-351.562,0
1667501361.287,-96.680,50.293,-174.805,102.539,0
1667501361.288,407.715,45.410,-199.219,286.621,0
1667501361.292,-280.762,31.250,-425.293,-159.180,0
1667501361.296,-835.938,33.203,-391.113,-369.141,0
1667501361.300,-334.473,33.203,-270.996,26.855,0
1667501361.304,368.652,25.391,-238.770,345.703,0
1667501361.308,-75.195,18.066,-358.398,0.488,0
1667501361.312,-826.172,24.902,-437.012,-381.836,0
1667501361.315,-583.008,38.086,-316.406,-117.188,0
1667501361.319,254.395,22.461,-349.609,350.586,0
1667501361.323,142.090,12.695,-408.203,145.020,0
1667501361.327,-728.027,18.555,-370.605,-357.422,0
1667501361.331,-770.508,16.113,-417.480,-253.906,0
1667501361.334,47.363,19.043,-272.949,227.051,0
1667501361.338,310.547,22.461,-223.633,210.938,0
1667501361.342,-519.531,20.996,-360.352,-298.340,0
1667501361.346,-862.793,21.484,-418.457,-374.512,0
1667501361.350,-176.270,28.809,-302.734,95.703,0
1667501361.354,387.695,35.645,-250.000,300.781,0
1667501361.358,-265.625,24.902,-392.578,-131.348,0
1667501361.361,-884.277,14.648,-470.703,-400.879,0
1667501361.365,-423.340,24.902,-388.672,-21.973,0
1667501361.369,337.402,35.645,-236.328,321.777,0
1667501361.373,-34.180,29.297,-262.207,-8.301,0
1667501361.377,-830.078,9.277,-490.234,-390.137,0
1667501361.380,-642.090,-3.418,-625.488,-145.508,0
1667501361.384,221.191,23.438,-229.004,289.551,0
1667501361.388,229.980,25.879,-155.273,145.508,0
1667501361.392,-637.207,10.254,-460.938,-328.613,0
1667501361.396,-747.559,20.996,-432.617,-293.457,0
1667501361.400,85.449,28.809,-295.898,184.082,0
1667501361.404,461.426,28.320,-233.887,237.305,0
1667501361.407,-338.867,13.672,-476.074,-243.164,0
1667501361.411,-768.066,20.996,-531.738,-383.301,0
1667501361.415,-101.562,44.922,-211.426,34.668,0
1667501361.419,570.312,36.621,-59.570,276.367,0
1667501361.423,-19.043,24.902,-220.703,-145.020,0
1667501361.423,-702.148,25.391,-345.215,-458.496,0
1667501361.427,-280.762,30.273,-209.473,-108.398,0
1667501361.431,540.039,31.738,-40.527,298.340,0
1667501361.435,234.863,23.926,-172.363,6.836,0
1667501361.439,-621.582,19.531,-423.340,-437.012,0
1667501361.443,-512.207,21.484,-407.227,-241.699,0
1667501361.447,382.324,28.809,-220.703,237.793,0
1667501361.450,494.141,18.066,-441.406,178.223,0
1667501361.454,-424.805,14.648,-590.820,-328.125,0
1667501361.458,-667.969,31.738,-323.242,-360.352,0
1667501361.462,122.070,35.645,-253.418,140.625,0
1667501361.466,576.660,36.621,-233.398,263.184,0
1667501361.483,-195.312,37.598,-261.230,-218.262,0
1667501361.487,-679.199,31.250,-341.797,-404.297,0
1667501361.491,-60.547,28.809,-297.852,30.273,0
1667501361.495,653.320,30.762,-133.789,308.105,0
1667501361.499,150.391,19.043,-228.516,-84.473,0
1667501361.503,-603.027,7.812,-396.973,-429.199,0
1667501361.507,-265.625,8.301,-428.223,-104.980,0
1667501361.510,589.355,16.602,-326.660,307.129,0
1667501361.514,366.211,30.273,-17.090,26.367,0
1667501361.518,-522.461,21.484,-185.547,-421.387,0
1667501361.522,-510.742,12.695,-337.402,-270.508,0
1667501361.526,365.723,26.855,-23.438,206.055,0
1667501361.512,550.293,32.227,60.547,160.645,0
1667501361.516,-341.797,14.160,-226.562,-342.285,0
1667501361.520,-634.766,10.742,-360.840,-395.020,0
1667501361.524,115.723,28.320,-134.766,84.961,0
1667501361.528,634.766,27.344,38.574,245.605,0
1667501361.532,-109.863,12.207,-219.238,-219.238,0
1667501361.536,-713.379,12.695,-376.465,-452.148,0
1667501361.539,-162.109,20.996,-274.902,-48.828,0
1667501361.543,591.309,30.762,-38.574,276.855,0
1667501361.547,88.867,21.484,-100.098,-85.449,0
1667501361.551,-731.445,-2.930,-564.941,-438.477,0
1667501361.555,-462.402,13.672,-396.973,-168.945,0
1667501361.572,440.918,38.086,83.008,269.043,0
1667501361.576,317.383,23.926,-51.758,85.938,0
1667501361.580,-618.164,16.113,-322.754,-403.320,0
1667501361.584,-682.129,29.297,-241.211,-313.965,0
1667501361.588,168.457,28.809,36.133,181.152,0
1667501361.592,436.035,12.207,-119.141,213.867,0
1667501361.596,-465.332,4.883,-429.199,-297.852,0
1667501361.599,-848.633,22.461,-283.691,-415.527,0
1667501361.603,-115.234,27.832,-70.801,64.941,0
1667501361.607,464.844,25.391,-31.250,297.363,0
1667501361.611,-248.535,16.602,-246.094,-155.273,0
1667501361.615,-901.367,9.277,-340.820,-437.500,0
1667501361.618,-418.945,22.949,-308.594,-41.504,0
1667501361.622,368.164,34.180,-161.133,325.195,0
1667501361.626,-29.785,23.438,-204.590,-11.230,0
1667501361.630,-876.465,16.113,-353.027,-434.082,0
1667501361.634,-683.105,22.949,-319.336,-181.152,0
1667501361.638,220.703,24.414,-209.961,308.594,0
1667501361.642,193.848,15.137,-258.301,149.902,0
1667501361.645,-744.141,16.113,-375.977,-351.562,0
1667501361.649,-861.816,19.043,-319.336,-296.875,0
1667501361.653,0.488,4.395,-426.758,242.188,0
1667501361.657,367.188,19.531,-361.816,290.039,0
1667501361.661,-460.938,36.133,-235.352,-286.133,90
1667501361.664,-887.695,25.391,-411.621,-425.781,0
1667501361.668,-213.867,29.297,-342.773,53.711,0
1667501361.672,434.082,32.715,-181.641,298.828,0
1667501361.676,-188.965,24.414,-275.879,-148.438,0
1667501361.680,-880.371,18.555,-380.859,-477.051,0
1667501361.684,-448.730,22.461,-369.629,-110.840,0
1667501361.688,391.602,37.598,-190.430,292.969,0
1667501361.691,97.656,39.062,-144.043,-12.207,0
1667501361.695,-752.441,11.230,-459.961,-410.645,0
1667501361.699,-626.465,16.602,-513.672,-221.680,0
1667501361.703,256.348,46.387,-59.082,224.121,0
1667501361.707,316.406,38.574,-77.637,150.879,0
1667501361.709,-607.910,21.484,-375.000,-375.488,0
1667501361.713,-803.223,35.645,-340.820,-326.172,0
1667501361.717,14.648,63.477,-153.320,247.070,0
1667501361.721,420.898,37.598,-88.867,313.965,0
1667501361.725,-401.367,2.441,-371.582,-242.188,0
1667501361.729,-897.461,10.254,-479.004,-500.977,0
1667501361.733,-282.227,27.832,-384.766,-138.672,0
1667501361.736,376.953,20.996,-338.379,113.770,0
1667501361.740,-181.152,-16.602,-639.160,-287.109,0
1667501361.744,-909.180,-16.602,-717.773,-643.066,0
1667501361.748,-535.645,9.277,-432.617,-329.590,0
1667501361.752,334.961,-3.906,-470.215,108.887,0
1667501361.754,134.277,-19.531,-552.734,-161.133,0
1667501361.758,-715.820,-21.973,-539.062,-667.480,0
1667501361.762,-666.016,-26.855,-505.859,-551.758,0
1667501361.766,230.957,-16.602,-406.250,-29.785,0
1667501361.770,397.461,-10.742,-446.289,-57.129,0
1667501361.774,-492.676,-32.227,-572.754,-611.816,0
1667501361.778,-736.328,-31.738,-530.762,-664.062,0
1667501361.781,37.109,-26.855,-523.926,-138.672,0
1667501361.785,552.246,-32.227,-462.402,23.438,0
1667501361.789,-147.949,-29.297,-339.844,-499.512,0
1667501361.793,-688.477,-35.156,-458.008,-769.043,0
1667501361.797,-125.000,-22.461,-380.371,-327.148,0
1667501361.799,611.816,-18.555,-182.129,21.973,0
1667501361.803,152.832,-29.297,-250.977,-368.164,0
1667501361.807,-596.680,-33.203,-384.766,-762.695,0
1667501361.811,-293.945,-27.344,-347.168,-462.891,0
1667501361.815,549.805,-17.578,-116.211,-14.160,0
1667501361.819,446.289,-28.320,-217.285,-263.672,0
1667501361.823,-366.211,-31.738,-403.320,-784.668,0
1667501361.826,-376.465,-33.691,-507.324,-649.414,0
1667501361.830,403.809,-18.555,-351.074,-124.023,0
1667501361.834,956.543,6.348,175.781,155.273,0
1667501361.838,-99.121,-25.391,-270.020,-451.172,0
1667501361.842,-1000.000,-52.734,-994.629,-1000.000,0
1667501361.844,-134.277,11.230,-184.570,-172.363,0
1667501361.848,-810.547,46.875,791.504,-847.656,0
1667501361.852,107.422,-27.832,-35.645,21.484,0
1667501361.856,-1000.000,-68.359,-1000.000,-1000.000,0
1667501361.860,-297.852,-12.207,-372.559,-301.758,0
1667501361.864,-834.961,44.434,724.609,-849.121,0
1667501361.868,249.023,-22.949,121.094,214.355,0
1667501361.871,-1000.000,-74.707,-1000.000,-1000.000,0
1667501361.875,-715.820,-15.625,-715.332,-770.996,0
1667501361.879,834.473,59.570,411.621,800.293,0
1667501361.883,729.980,43.457,453.125,614.258,0
1667501361.887,-808.594,-22.949,-325.195,-942.383,0
1667501361.889,-962.891,-9.277,-385.742,-976.074,0
1667501361.893,69.336,12.695,-78.613,-235.352,0
1667501361.897,489.258,9.277,3.906,-1.465,0
1667501361.901,-272.949,4.883,-226.074,-579.590,0
1667501361.905,-632.812,11.230,-331.055,-734.863,0
1667501361.909,45.898,20.508,-256.836,-104.980,0
1667501361.913,661.621,22.461,-220.215,269.531,0
1667501361.916,71.777,13.672,-334.473,-278.809,0
1667501361.920,-569.336,19.531,-380.859,-709.473,0
1667501361.924,-159.668,26.855,-310.059,-251.465,0
1667501361.928,605.957,10.254,-406.738,333.984,0
1667501361.932,270.508,17.578,-439.941,-45.898,0
1667501361.934,-552.246,24.902,-374.512,-691.406,0
1667501361.938,-408.691,16.602,-447.266,-437.012,0
1667501361.942,424.316,32.227,-276.367,256.836,0
1667501361.946,474.121,35.156,-202.148,154.785,0
1667501361.950,-354.980,20.996,-416.504,-541.992,0
1667501361.954,-491.211,9.766,-611.816,-554.199,0
1667501361.958,256.836,27.344,-480.469,127.441,0
1667501361.961,633.789,52.246,-216.797,330.566,0
1667501361.965,-114.258,38.574,-430.664,-331.543,0
1667501361.969,-581.543,27.344,-547.363,-641.113,0
1667501361.973,20.508,39.062,-349.121,-46.387,0
1667501361.977,666.016,44.434,-220.703,428.223,0
1667501361.995,109.375,33.203,-388.672,-137.207,0
1667501361.999,-594.238,32.227,-539.551,-682.617,0
1667501362.003,-244.141,51.758,-392.578,-247.559,0
1667501362.007,562.500,59.570,-252.930,436.035,0
1667501362.011,309.570,41.504,-391.113,122.070,0
1667501362.015,-546.387,36.621,-551.270,-621.094,0
1667501362.019,-500.000,45.410,-507.812,-464.844,0
1667501362.022,342.773,60.547,-313.477,326.172,0
1667501362.026,492.188,56.641,-307.617,343.262,0
1667501362.030,-378.906,26.855,-680.176,-464.844,0
1667501362.034,-639.160,48.340,-635.742,-611.816,0
1667501362.038,99.609,72.266,-261.230,142.578,0
1667501362.038,574.219,50.293,-318.848,488.770,0
1667501362.042,-169.434,39.062,-518.555,-258.301,0
1667501362.046,-708.496,46.875,-491.699,-690.918,0
1667501362.050,-140.137,56.641,-379.395,-65.430,0
1667501362.054,581.055,57.617,-301.758,542.480,0
1667501362.058,98.145,48.828,-448.730,-5.371,0
1667501362.062,-652.344,40.527,-577.637,-670.410,0
1667501362.065,-363.281,51.270,-421.875,-270.996,0
1667501362.069,481.934,57.129,-368.164,516.602,0
1667501362.073,335.449,47.363,-480.469,252.930,0
1667501362.077,-523.926,52.246,-464.844,-596.680,0
1667501362.081,-525.879,52.734,-471.191,-497.070,0
1667501362.083,286.133,63.477,-342.285,340.820,0
1667501362.087,505.371,66.895,-277.344,439.941,0
1667501362.091,-312.988,52.246,-448.242,-386.230,0
1667501362.095,-622.070,48.340,-521.973,-588.379,0
1667501362.099,32.715,54.688,-406.250,137.207,0
1667501362.103,534.668,55.664,-343.750,537.598,0
1667501362.107,-116.211,49.805,-480.469,-153.320,0
1667501362.110,-675.293,52.246,-553.223,-667.480,0
1667501362.114,-206.055,41.504,-619.141,-76.660,0
1667501362.118,499.023,47.852,-451.172,567.871,0
1667501362.122,108.887,60.059,-285.156,40.039,0
1667501362.126,-623.535,46.387,-504.395,-665.527,0
1667501362.128,-413.086,48.828,-463.867,-339.355,0
1667501362.132,392.578,66.406,-221.191,441.895,0
1667501362.136,346.191,56.152,-266.113,268.066,0
1667501362.140,-500.488,36.133,-454.102,-566.895,0
1667501362.144,-588.379,39.062,-452.148,-568.359,0
1667501362.148,182.129,47.852,-345.215,245.117,0
1667501362.152,469.238,46.387,-281.250,439.453,0
1667501362.155,-302.246,24.414,-550.293,-350.586,0
1667501362.159,-654.785,27.832,-629.883,-642.090,0
1667501362.163,-149.902,49.316,-320.312,-32.227,0
1667501362.167,873.535,63.965,148.438,861.816,0
1667501362.171,341.797,43.457,-1.465,226.074,0
1667501362.188,-1000.000,3.418,-830.566,-1000.000,0
1667501362.192,-711.426,35.156,-688.965,-627.441,0
1667501362.196,893.066,92.773,349.609,981.445,0
1667501362.200,475.586,63.477,223.633,431.152,0
1667501362.204,-1000.000,2.441,-798.828,-1000.000,0
1667501362.208,-994.141,10.742,-937.988,-926.270,0
1667501362.212,416.992,79.590,66.895,530.273,0
1667501362.215,968.262,60.547,291.992,966.797,0
1667501362.219,-212.402,15.625,-309.082,-185.059,0
1667501362.223,-495.117,43.457,-34.180,-295.898,0
1667501362.227,201.660,45.898,83.008,500.977,0
1667501362.231,385.742,38.086,39.062,598.633,0
1667501362.249,-208.008,28.809,-33.203,-50.293,0
1667501362.253,-509.277,20.508,-237.305,-286.133,0
1667501362.257,-104.980,24.902,-257.324,235.840,0
1667501362.261,276.367,31.250,-67.871,565.430,0
1667501362.265,-135.254,29.297,-8.301,64.941,0
1667501362.269,-582.031,20.996,-258.301,-342.773,0
1667501362.273,-322.754,26.367,-272.461,34.668,0
1667501362.276,177.734,36.621,-1.953,504.883,0
1667501362.280,-31.738,29.297,-6.348,203.613,0
1667501362.284,-561.035,26.855,-191.895,-333.008,0
1667501362.288,-485.352,16.113,-388.672,-139.648,0
1667501362.292,37.109,25.391,-214.355,432.129,0
1667501362.264,70.312,41.992,42.969,348.633,0
1667501362.268,-494.141,29.785,-214.355,-253.418,0
1667501362.272,-625.977,20.020,-319.824,-311.523,0
1667501362.276,-144.531,16.602,-203.613,274.902,0
1667501362.280,126.465,17.578,-148.438,482.910,0
1667501362.284,-375.977,5.371,-280.273,-109.863,0
1667501362.288,-695.801,4.883,-385.254,-412.598,0
1667501362.291,-320.801,23.926,-276.855,89.355,0
1667501362.295,110.352,28.809,-87.891,494.141,0
1667501362.299,-234.375,15.625,-186.523,34.668,0
1667501362.303,-698.242,12.207,-417.969,-461.426,0
1667501362.307,-479.004,28.809,-249.512,-114.258,0
1667501362.308,82.031,33.691,39.062,485.840,0
1667501362.312,-56.641,17.578,-150.391,235.840,0
1667501362.316,-643.555,-2.441,-624.512,-397.461,0
1667501362.320,-607.422,21.484,-351.074,-304.688,0
1667501362.324,-21.484,42.969,125.488,337.891,0
1667501362.328,105.469,17.090,-114.746,386.719,0
1667501362.332,-487.305,4.883,-453.125,-303.711,0
1667501362.335,-672.852,25.879,-222.168,-484.375,0
1667501362.339,-174.805,28.809,30.762,141.602,0
1667501362.343,171.387,22.949,-34.180,437.012,0
1667501362.347,-309.570,20.996,-128.418,-178.223,0
1667501362.351,-664.062,26.367,-153.809,-564.941,0
1667501362.370,-292.480,33.691,-79.102,-45.898,0
1667501362.374,180.176,40.039,104.004,483.398,0
1667501362.378,-138.184,32.227,42.480,41.504,0
1667501362.382,-644.531,25.391,-70.312,-544.922,0
1667501362.386,-465.332,31.250,-47.852,-227.051,0
1667501362.390,99.609,33.691,53.711,452.637,0
1667501362.394,13.672,29.785,-63.477,286.133,0
1667501362.397,-576.172,24.902,-316.895,-390.625,0
1667501362.401,-585.938,22.949,-292.480,-375.977,0
1667501362.405,-37.598,21.484,-357.422,304.688,0
1667501362.409,125.488,38.086,-203.613,432.617,0
1667501362.413,-445.312,37.109,-78.613,-284.668,0
1667501362.413,-687.500,22.949,-375.000,-491.211,0
1667501362.417,-227.051,30.273,-212.891,139.648,0
1667501362.421,149.414,35.645,79.102,520.020,0
1667501362.425,-282.227,33.203,-101.074,-15.625,0
1667501362.429,-678.711,21.973,-333.984,-469.727,0
1667501362.433,-603.027,15.137,-398.926,-218.262,0
1667501362.437,582.520,53.223,232.422,848.145,0
1667501362.440,393.066,44.434,182.129,387.695,0
1667501362.444,-1000.000,-23.926,-843.750,-1000.000,0
1667501362.448,-1000.000,-7.812,-885.742,-954.590,0
1667501362.452,397.461,68.848,121.094,547.363,0
1667501362.456,723.145,59.082,310.547,735.352,0
1667501362.458,-737.793,0.000,-596.191,-768.066,0
1667501362.462,-1000.000,-6.348,-990.234,-1000.000,0
1667501362.466,-72.754,56.152,-183.594,-14.648,0
1667501362.470,-930.664,82.031,568.359,-913.086,0
1667501362.474,-169.434,9.766,-244.141,-185.059,0
1667501362.478,-1000.000,-20.020,-1000.000,-1000.000,0
1667501362.482,-295.410,29.297,-549.805,-243.164,0
1667501362.485,-863.281,77.637,453.125,-842.285,0
1667501362.489,208.008,14.160,-111.328,206.055,0
1667501362.493,-1000.000,-31.738,-1000.000,-1000.000,0
1667501362.497,-635.742,22.949,-671.875,-544.434,0
1667501362.501,944.824,80.566,393.066,-965.332,0
1667501362.503,420.410,48.340,219.727,381.348,0
1667501362.507,-1000.000,-13.672,-857.910,-1000.000,0
1667501362.511,-1000.000,2.441,-901.367,-977.539,0
1667501362.515,422.363,70.312,79.590,541.504,0
1667501362.519,791.504,64.941,362.305,752.930,0
1667501362.523,-738.281,-17.090,-635.254,-813.477,0
1667501362.527,-1000.000,-17.578,-1000.000,-1000.000,0
1667501362.530,-90.332,38.574,-301.270,-48.340,0
1667501362.534,-868.164,63.965,537.109,-871.582,0
1667501362.538,-9.277,5.371,-119.141,-56.641,0
1667501362.542,-1000.000,-32.715,-1000.000,-1000.000,0
1667501362.546,-320.312,32.715,-560.059,-276.367,0
1667501362.547,-857.422,97.656,539.062,-843.750,0
1667501362.551,247.070,47.852,137.695,223.145,0
1667501362.555,-1000.000,-9.277,-950.684,-1000.000,0
1667501362.559,-671.387,31.250,-753.418,-603.516,0
1667501362.563,914.551,108.398,418.945,988.770,0
1667501362.567,495.117,79.102,273.926,438.965,0
1667501362.571,-1000.000,11.719,-822.266,-1000.000,0
1667501362.574,-1000.000,15.137,-1000.000,-1000.000,0
1667501362.578,313.965,100.586,-119.629,404.297,0
1667501362.582,958.496,134.766,618.164,918.945,0
1667501362.586,-481.445,43.945,-345.703,-561.035,0
1667501362.590,-1000.000,18.555,-1000.000,-1000.000,0
1667501362.592,-128.418,93.262,-202.148,-100.098,0
1667501362.596,-853.516,127.441,696.777,-853.027,0
1667501362.600,50.293,44.922,-102.539,20.508,0
1667501362.604,-1000.000,1.465,-1000.000,-1000.000,0
1667501362.608,-368.652,59.570,-541.016,-312.988,0
1667501362.612,-873.535,110.840,594.238,-850.586,0
1667501362.616,267.578,49.805,40.527,250.000,0
1667501362.619,-1000.000,-5.371,-1000.000,-1000.000,0
1667501362.623,-773.926,43.457,-747.070,-684.082,0
1667501362.627,803.223,104.980,367.676,912.598,0
1667501362.631,562.012,77.148,325.195,524.414,0
1667501362.635,-944.336,6.836,-760.254,-984.863,0
1667501362.654,-1000.000,24.902,-932.617,-1000.000,0
1667501362.658,177.246,91.797,-11.230,282.715,71
1667501362.662,984.863,94.238,591.309,982.422,0
1667501362.666,-418.945,19.531,-292.480,-457.031,0
1667501362.670,-1000.000,0.977,-1000.000,-1000.000,0
1667501362.674,-168.457,60.547,-330.566,-145.020,0
1667501362.678,-852.051,79.590,500.000,-845.215,0
1667501362.681,90.820,17.578,-231.934,83.496,0
1667501362.685,-1000.000,-7.812,-1000.000,-1000.000,0
1667501362.689,-429.688,35.156,-644.531,-356.934,0
1667501362.693,-902.344,89.844,467.773,-862.793,0
1667501362.697,291.992,53.711,177.734,275.879,0
1667501362.683,-1000.000,-15.137,-923.340,-1000.000,0
1667501362.687,-878.418,8.301,-893.066,-777.832,0
1667501362.691,661.621,87.402,185.547,804.199,0
1667501362.695,646.973,69.336,404.297,617.676,0
1667501362.699,-868.164,-12.695,-662.598,-907.227,0
1667501362.703,-1000.000,-19.531,-1000.000,-1000.000,0
1667501362.707,58.594,59.082,-145.508,162.109,0
1667501362.710,-968.750,89.844,637.207,-954.590,0
1667501362.714,-308.105,7.324,-261.719,-332.031,0
1667501362.718,-1000.000,-36.133,-1000.000,-1000.000,0
1667501362.722,-215.820,32.227,-471.191,-181.152,0
1667501362.726,-848.145,94.238,641.602,-835.938,0
1667501362.757,153.320,24.902,-22.949,152.832,0
1667501362.761,-1000.000,-23.438,-1000.000,-1000.000,0
1667501362.765,-513.672,26.367,-684.570,-424.316,0
1667501362.769,-952.148,93.750,499.023,-887.207,0
1667501362.773,347.656,44.434,196.289,319.336,0
1667501362.777,-1000.000,-33.691,-965.820,-1000.000,0
1667501362.781,-954.102,-2.441,-876.953,-870.117,0
1667501362.784,546.875,83.984,208.008,684.082,0
1667501362.788,736.328,67.383,446.777,712.402,0
1667501362.792,-777.832,-34.180,-666.992,-819.336,0
1667501362.796,-1000.000,-18.066,-1000.000,-1000.000,0
1667501362.800,-20.508,73.730,-117.188,56.152,0
1667501362.802,-928.711,83.496,617.188,-910.156,0
1667501362.806,-197.266,2.930,-280.273,-209.473,0
1667501362.810,-1000.000,-18.555,-1000.000,-1000.000,0
1667501362.814,-242.188,41.992,-416.992,-198.730,0
1667501362.818,-909.180,78.613,529.785,-892.578,0
1667501362.822,103.516,9.277,-92.773,102.539,0
1667501362.826,-1000.000,-39.062,-1000.000,-1000.000,0
1667501362.829,-602.539,9.766,-709.473,-504.883,0
1667501362.833,979.004,76.660,424.316,-934.570,0
1667501362.837,403.320,35.156,213.867,373.047,0
1667501362.841,-1000.000,-41.504,-891.602,-1000.000,0
1667501362.845,-1000.000,-10.742,-916.992,-959.473,0
1667501362.832,417.969,69.336,27.832,544.922,0
1667501362.836,827.148,72.754,463.379,799.316,0
1667501362.840,-669.922,2.441,-493.652,-723.145,0
1667501362.844,-1000.000,-14.160,-1000.000,-1000.000,0
1667501362.848,-82.520,64.453,-188.477,-33.691,0
1667501362.852,-890.625,110.352,685.059,-883.789,0
1667501362.856,-77.148,29.297,-204.102,-109.863,0
1667501362.859,-1000.000,-10.254,-1000.000,-1000.000,0
1667501362.863,-311.523,58.105,-474.609,-258.789,0
1667501362.867,-861.816,121.094,660.156,-841.797,0
1667501362.871,220.215,68.359,157.227,216.797,0
1667501362.875,-1000.000,3.418,-985.352,-1000.000,0
1667501362.877,-701.172,28.320,-857.910,-588.867,0
1667501362.881,887.207,127.441,378.418,-995.605,0
1667501362.885,474.609,117.188,395.020,432.617,0
1667501362.889,-1000.000,29.785,-745.605,-1000.000,0
1667501362.893,-1000.000,53.711,-905.273,-1000.000,0
1667501362.897,293.945,134.277,84.961,410.156,0
1667501362.901,911.133,130.859,652.344,895.508,0
1667501362.904,-550.293,41.992,-323.730,-597.168,0
1667501362.908,-1000.000,38.574,-1000.000,-1000.000,0
1667501362.912,-139.648,120.117,-141.602,-104.980,0
1667501362.916,-868.164,157.227,787.109,-856.934,0
1667501362.920,22.461,69.336,-109.863,14.160,0
1667501362.922,-1000.000,26.367,-1000.000,-1000.000,0
1667501362.926,-365.723,86.914,-428.223,-301.758,0
1667501362.930,-875.488,128.906,662.109,-846.191,0
1667501362.934,251.953,67.383,193.848,244.629,0
1667501362.938,-1000.000,-3.906,-955.566,-1000.000,0
1667501362.942,-787.109,25.391,-801.758,-685.547,0
1667501362.946,785.645,112.793,425.781,910.645,0
1667501362.949,573.242,70.801,248.535,547.363,0
1667501362.953,-939.453,-4.395,-905.762,-971.191,0
1667501362.957,-1000.000,30.273,-902.832,-1000.000,0
1667501362.961,156.738,89.844,52.734,273.926,0
1667501362.965,-984.863,90.820,723.145,-983.398,0
1667501362.967,-367.676,11.230,-223.633,-401.855,0
1667501362.971,-1000.000,-9.766,-1000.000,-1000.000,0
1667501362.975,-174.316,55.664,-222.656,-155.762,0
1667501362.979,-841.797,98.633,750.000,-837.402,0
1667501362.983,131.836,32.227,20.508,118.652,0
1667501362.987,-1000.000,-20.996,-1000.000,-1000.000,0
1667501362.991,-425.293,19.531,-656.250,-361.816,0
1667501362.994,-891.602,90.820,514.160,-860.352,0
1667501362.998,326.660,56.152,298.340,295.898,0
1667501363.002,-1000.000,-23.438,-885.742,-1000.000,0
1667501363.006,-861.816,-0.488,-801.758,-790.039,0
1667501363.010,681.152,78.125,369.141,785.645,0
1667501363.012,717.773,67.383,560.059,675.781,0
1667501363.016,-800.781,-25.879,-519.043,-857.910,0
1667501363.020,-1000.000,-29.785,-979.980,-1000.000,0
1667501363.024,50.781,57.617,-18.555,140.137,0
1667501363.028,-922.852,78.125,771.973,-916.016,0
1667501363.032,-217.285,-13.184,-159.668,-245.117,0
1667501363.036,-1000.000,-61.523,-1000.000,-1000.000,0
1667501363.039,-225.586,10.742,-362.793,-195.312,0
1667501363.043,-842.285,78.613,781.738,-830.566,0
1667501363.047,176.758,1.465,65.430,182.129,0
1667501363.051,-1000.000,-51.758,-1000.000,-1000.000,0
1667501363.055,-544.434,6.836,-621.582,-446.777,0
1667501363.057,-970.215,71.289,559.082,-895.508,0
1667501363.061,364.258,24.414,221.191,364.258,0
1667501363.065,-1000.000,-48.340,-958.496,-1000.000,0
1667501363.069,-990.234,-17.578,-815.918,-887.207,0
1667501363.073,472.656,59.570,334.961,635.742,0
1667501363.077,809.570,32.227,436.035,827.637,0
1667501363.081,-696.289,-53.223,-650.879,-687.012,0
1667501363.084,-1000.000,-37.109,-995.605,-1000.000,0
1667501363.088,-64.453,42.480,-103.027,12.207,0
1667501363.092,-895.508,60.547,673.340,-872.559,0
1667501363.096,-103.027,-16.113,-186.523,-101.074,0
1667501363.100,-1000.000,-29.297,-1000.000,-1000.000,0
1667501363.117,-282.227,40.039,-394.043,-235.352,0
1667501363.121,-851.562,89.844,701.172,-831.543,0
1667501363.125,212.891,21.973,138.184,215.332,0
1667501363.129,-1000.000,-29.297,-963.379,-1000.000,0
1667501363.133,-645.020,16.113,-689.941,-553.223,0
1667501363.137,943.359,78.613,457.031,-965.820,0
1667501363.141,463.867,48.828,295.410,435.547,0
1667501363.144,-1000.000,-25.391,-822.266,-1000.000,0
1667501363.148,-1000.000,-10.742,-902.832,-1000.000,0
1667501363.152,341.309,52.734,-10.254,442.383,0
1667501363.156,924.805,65.430,636.719,898.926,0
1667501363.160,-538.086,-10.254,-260.742,-590.332,0
1667501363.162,-1000.000,-30.273,-1000.000,-1000.000,0
1667501363.166,-122.559,49.805,-223.633,-98.633,0
1667501363.170,-860.840,86.914,788.086,-860.840,0
1667501363.174,26.367,1.465,-38.086,0.488,0
1667501363.178,-1000.000,-47.852,-1000.000,-1000.000,0
1667501363.182,-342.285,10.254,-540.039,-304.199,0
1667501363.186,-862.793,70.801,607.422,-849.609,0
1667501363.189,256.348,12.695,215.820,234.375,0
1667501363.193,-1000.000,-63.477,-980.469,-1000.000,0
1667501363.197,-744.629,-28.320,-796.387,-695.312,0
1667501363.201,840.332,75.684,448.242,902.832,0
1667501363.205,567.871,48.340,416.016,514.648,0
1667501363.207,-947.754,-42.969,-717.773,-990.723,0
1667501363.211,-1000.000,-32.715,-943.359,-1000.000,0
1667501363.215,210.938,47.363,46.387,261.230,0
1667501363.219,-990.234,57.129,695.312,981.445,0
1667501363.223,-390.625,-29.785,-280.762,-456.543,0
1667501363.227,-1000.000,-48.340,-1000.000,-1000.000,0
1667501363.231,-168.457,19.043,-319.824,-157.227,0
1667501363.234,-843.750,62.012,698.242,-847.168,0
1667501363.238,117.188,-23.438,-159.668,94.727,0
1667501363.242,-1000.000,-59.082,-1000.000,-1000.000,0
1667501363.246,-413.086,21.484,-560.547,-382.324,0
1667501363.250,-886.719,81.543,599.121,-874.023,0
1667501363.252,297.363,25.391,235.352,274.414,0
1667501363.256,-1000.000,-39.062,-936.035,-1000.000,0
1667501363.260,-862.793,-9.277,-804.199,-820.801,0
1667501363.264,693.848,68.359,348.633,755.371,0
1667501363.268,646.973,54.199,405.762,615.234,0
1667501363.272,-868.652,-36.621,-707.520,-904.297,0
1667501363.276,-1000.000,-35.645,-1000.000,-1000.000,0
1667501363.279,64.453,36.621,-134.766,125.977,0
1667501363.283,996.094,56.152,596.680,990.723,0
1667501363.287,-363.770,-15.625,-268.066,-401.855,0
1667501363.291,-1000.000,-49.805,-1000.000,-1000.000,0
1667501363.295,-219.238,21.484,-404.297,-196.289,0
1667501363.297,-848.145,83.008,699.219,-842.285,0
1667501363.301,166.504,18.066,61.035,158.691,0
1667501363.305,-1000.000,-35.645,-1000.000,-1000.000,0
1667501363.309,-494.629,15.625,-627.441,-443.848,0
1667501363.313,998.535,84.473,517.578,-964.844,0
1667501363.317,265.137,34.668,148.438,241.699,0
1667501363.321,-1000.000,-38.574,-910.645,-1000.000,0
1667501363.324,-961.426,-23.438,-1000.000,-912.598,0
1667501363.328,529.785,70.312,3.418,615.234,0
1667501363.332,780.273,79.102,532.715,744.141,0
1667501363.336,-736.816,-30.273,-536.621,-779.785,0
1667501363.340,-1000.000,-40.039,-1000.000,-1000.000,0
1667501363.343,-46.387,49.316,-178.711,-9.766,0
1667501363.347,-893.555,84.961,723.145,-903.809,0
1667501363.351,-113.281,-4.883,-195.312,-166.504,0
1667501363.355,-1000.000,-41.016,-1000.000,-1000.000,0
1667501363.359,-270.996,29.297,-451.172,-245.605,0
1667501363.363,-847.168,83.984,643.066,-842.773,0
1667501363.367,217.285,10.742,2.441,204.590,0
1667501363.370,-1000.000,-43.945,-1000.000,-1000.000,0
1667501363.374,-631.836,15.625,-724.121,-596.680,0
1667501363.378,957.520,82.031,468.262,995.117,0
1667501363.382,479.492,35.156,262.695,439.453,0
1667501363.386,-1000.000,-36.621,-885.742,-1000.000,0
1667501363.388,-1000.000,-15.625,-942.383,-1000.000,0
1667501363.392,322.754,57.617,13.184,361.816,0
1667501363.396,956.055,65.918,542.480,921.875,0
1667501363.400,-496.582,-11.719,-392.578,-585.449,0
1667501363.404,-1000.000,-31.738,-1000.000,-1000.000,0
1667501363.408,-131.836,34.180,-293.457,-32.715,0
1667501363.412,-847.656,60.547,537.109,-866.699,0
1667501363.415,73.242,-9.766,-244.141,38.574,0
1667501363.419,-1000.000,-34.668,-1000.000,-1000.000,0
1667501363.423,-387.207,10.742,-634.766,-361.816,0
1667501363.427,-877.930,59.570,446.289,-868.652,0
1667501363.431,312.500,21.973,184.570,279.297,0
1667501363.447,-1000.000,-30.762,-861.816,-1000.000,0
1667501363.451,-876.465,-8.301,-886.230,-864.746,0
1667501363.455,635.254,62.988,101.074,665.527,0
1667501363.459,764.160,64.453,410.645,708.496,0
1667501363.463,-723.145,-7.324,-569.824,-788.574,0
1667501363.467,-1000.000,-23.926,-1000.000,-1000.000,0
1667501363.471,-71.777,44.922,-274.902,-73.242,0
1667501363.474,-882.324,84.961,649.414,-902.344,0
1667501363.478,-83.984,-2.441,-163.086,-141.602,0
1667501363.482,-1000.000,-46.875,-1000.000,-1000.000,0
1667501363.486,-232.422,38.574,-340.820,-223.145,0
1667501363.490,-830.078,104.492,696.777,-831.543,0
1667501363.492,247.559,36.621,158.691,228.516,0
1667501363.496,-1000.000,-37.109,-888.672,-1000.000,0
1667501363.500,-630.371,3.906,-668.945,-617.676,0
1667501363.504,807.617,80.078,377.930,812.988,0
1667501363.508,955.078,47.852,487.793,968.750,0
1667501363.512,230.469,2.441,73.730,367.188,0
1667501363.516,180.176,16.602,148.438,386.719,0
1667501363.519,867.188,36.621,347.168,934.082,0
1667501363.523,867.676,28.809,408.691,853.516,0
1667501363.527,-342.285,-24.414,-276.367,-335.449,0
1667501363.531,-1000.000,-19.043,-789.062,-1000.000,0
1667501363.535,-393.555,31.738,-276.367,-453.613,0
1667501363.537,985.352,42.969,169.922,912.109,0
1667501363.541,81.543,18.555,-164.551,62.500,0
1667501363.545,-1000.000,-4.395,-696.777,-1000.000,0
1667501363.549,-611.328,9.766,-558.594,-647.949,0
1667501363.553,833.984,41.016,121.582,789.062,0
1667501363.557,380.859,24.414,35.645,355.957,0
1667501363.561,-1000.000,-6.348,-704.102,-1000.000,0
1667501363.564,-958.008,6.836,-730.957,-979.980,0
1667501363.568,473.633,34.668,-61.523,435.059,0
1667501363.572,808.105,24.414,147.461,787.109,0
1667501363.576,-624.023,-5.371,-476.562,-653.809,0
1667501363.580,-1000.000,-24.902,-910.156,-1000.000,0
1667501363.582,51.270,29.785,-121.582,45.898,0
1667501363.586,988.281,52.246,538.574,958.008,0
1667501363.590,-384.766,-25.879,-307.129,-437.988,0
1667501363.594,-1000.000,-47.363,-1000.000,-1000.000,0
1667501363.598,-156.250,13.184,-336.426,-151.855,0
1667501363.602,-840.332,52.734,589.844,-847.168,0
1667501363.606,109.863,-12.207,-124.512,87.891,0
1667501363.609,-1000.000,-52.246,-991.211,-1000.000,0
1667501363.613,-424.316,-22.949,-763.672,-410.156,0
1667501363.617,-894.043,45.410,304.688,-884.277,0
1667501363.621,317.383,27.344,227.539,285.156,0
1667501363.625,-1000.000,-42.969,-813.477,-1000.000,0
1667501363.627,-991.699,-24.414,-796.387,-1000.000,0
1667501363.631,330.078,16.602,-98.145,254.883,0
1667501363.635,752.441,11.719,20.020,669.922,0
1667501363.639,-636.230,-19.043,-521.973,-716.309,0
1667501363.643,-807.617,-17.090,-586.914,-777.344,0
1667501363.647,489.258,6.836,-161.621,520.020,0
1667501363.651,852.539,5.859,16.113,780.273,0
1667501363.654,-446.777,-25.879,-532.715,-530.762,0
1667501363.658,-1000.000,-19.043,-732.910,-992.188,0
1667501363.662,87.891,21.973,-138.184,142.090,0
1667501363.666,-972.656,20.996,149.414,938.965,0
1667501363.670,-43.945,-11.719,-238.281,-168.945,0
1667501363.672,-1000.000,-19.043,-474.121,-1000.000,0
1667501363.676,-322.754,0.977,-247.559,-230.469,0
1667501363.680,978.027,10.254,83.008,932.129,0
1667501363.684,331.055,-8.301,-97.168,211.914,0
1667501363.688,-1000.000,-22.949,-489.746,-1000.000,0
1667501363.692,-641.602,-15.137,-425.293,-590.820,0
1667501363.696,758.301,3.906,-51.758,763.184,0
1667501363.699,651.855,-0.977,-129.395,564.453,0
1667501363.703,-736.328,-8.301,-478.027,-808.594,0
1667501363.707,-946.777,1.465,-443.848,-894.043,0
1667501363.711,343.262,11.719,-67.383,388.672,0
1667501363.715,895.020,-6.836,-175.781,834.961,0
1667501363.717,-382.324,-14.648,-542.480,-455.566,0
1667501363.721,-1000.000,0.488,-455.078,-1000.000,0
1667501363.725,-43.945,9.766,-296.387,27.832,0
1667501363.729,-970.703,16.113,31.738,962.402,0
1667501363.733,20.020,-3.906,-176.758,-64.941,0
1667501363.737,-1000.000,-16.602,-555.176,-1000.000,0
1667501363.741,-473.145,-12.695,-496.094,-303.223,0
1667501363.744,895.996,-2.930,-77.148,921.875,0
1667501363.748,362.793,-2.441,-22.461,295.898,0
1667501363.752,-1000.000,-25.879,-504.395,-1000.000,0
1667501363.756,-834.473,-23.926,-462.402,-713.867,0
1667501363.760,544.434,-1.465,17.090,643.066,0
1667501363.762,676.270,-3.906,78.125,642.090,0
1667501363.766,-716.797,-31.250,-477.051,-736.328,0
1667501363.770,-1000.000,-27.344,-598.145,-942.871,0
1667501363.774,177.734,-6.348,-87.891,311.523,0
1667501363.778,906.738,-16.602,136.230,875.977,0
1667501363.782,-336.426,-45.410,-342.773,-375.488,0
1667501363.786,-1000.000,-55.176,-727.539,-1000.000,0
1667501363.789,-218.750,-30.273,-466.309,-38.574,0
1667501363.793,984.375,-3.418,124.023,977.539,0
1667501363.797,52.246,-25.879,-129.883,31.250,0
1667501363.801,-1000.000,-42.480,-606.445,-1000.000,0
1667501363.805,-593.262,-8.301,-345.215,-443.848,0
1667501363.808,812.012,11.230,148.438,874.512,0
1667501363.812,424.805,-18.066,-98.145,415.527,0
1667501363.816,-979.004,-38.086,-624.512,-942.871,0
1667501363.820,-911.621,-12.207,-485.840,-765.137,0
1667501363.824,440.430,15.625,11.230,583.008,0
1667501363.828,719.727,-13.184,-94.727,733.398,0
1667501363.832,-649.414,-41.992,-644.531,-625.488,0
1667501363.835,-1000.000,-19.043,-519.531,-986.816,0
1667501363.839,37.598,-3.906,-133.789,234.863,0
1667501363.843,913.086,-7.324,14.160,932.129,0
1667501363.847,-275.879,-20.996,-407.227,-260.742,0
1667501363.851,-1000.000,-22.949,-579.590,-1000.000,0
1667501363.868,-362.305,-5.859,-305.176,-112.793,0
1667501363.872,914.062,1.953,83.008,987.305,0
1667501363.876,98.633,-13.672,-97.168,124.023,0
1667501363.880,-1000.000,-27.832,-511.230,-1000.000,0
1667501363.884,-733.398,-21.484,-418.457,-511.230,0
1667501363.888,662.598,-10.254,-41.504,823.242,0
1667501363.892,474.609,-17.578,-125.488,502.930,0
1667501363.895,-935.059,-31.250,-537.598,-872.070,0
1667501363.899,-983.887,-22.461,-453.125,-828.125,0
1667501363.903,318.359,-21.973,-333.984,507.324,0
1667501363.907,765.625,-17.578,-261.719,775.391,0
1667501363.911,-573.242,-16.113,-394.043,-566.406,0
1667501363.912,-1000.000,-23.438,-618.652,-1000.000,0
1667501363.916,-49.805,-1.953,-253.906,158.691,0
1667501363.920,950.684,10.254,160.156,960.938,0
1667501363.924,-159.180,-16.602,-183.105,-167.969,0
1667501363.928,-1000.000,-29.785,-574.219,-1000.000,0
1667501363.932,-458.008,-14.160,-432.129,-202.637,0
1667501363.936,871.094,4.883,43.945,966.797,0
1667501363.939,193.359,-10.254,-88.379,222.656,0
1667501363.943,-1000.000,-45.410,-693.359,-1000.000,0
1667501363.947,-804.199,-27.832,-628.418,-547.852,0
1667501363.951,572.754,13.184,32.715,756.348,0
1667501363.955,553.223,-6.836,-56.641,578.613,0
1667501363.957,-850.098,-32.715,-569.336,-791.504,0
1667501363.961,-1000.000,-33.691,-583.984,-841.309,0
1667501363.965,215.332,-13.672,-127.441,450.195,0
1667501363.969,804.688,-4.395,83.984,825.195,0
1667501363.973,-480.957,-24.414,-424.316,-464.844,0
1667501363.977,-1000.000,-25.879,-625.977,-1000.000,0
1667501363.981,-190.430,-2.441,-291.992,80.078,0
1667501363.984,936.035,10.742,67.871,972.656,0
1667501363.988,-69.824,-23.926,-386.719,-52.734,0
1667501363.992,-1000.000,-27.344,-723.633,-1000.000,0
1667501363.996,-547.363,2.441,-306.152,-338.379,0
1667501364.000,820.801,1.465,57.617,896.484,0
1667501364.003,312.500,-20.996,-144.043,296.875,0
1667501364.007,-1000.000,-29.297,-509.766,-1000.000,0
1667501364.011,-815.430,-18.066,-423.340,-663.086,0
1667501364.015,567.871,-0.977,-82.031,694.336,0
1667501364.019,645.020,-4.395,-83.984,619.141,0
1667501364.023,-738.281,-25.879,-544.922,-738.770,0
1667501364.027,-1000.000,-21.484,-566.895,-929.199,0
1667501364.030,153.809,-13.672,-334.961,312.500,0
1667501364.034,892.090,-8.301,-164.551,839.355,0
1667501364.038,-341.309,-5.371,-255.859,-409.180,0
1667501364.042,-1000.000,-15.137,-492.188,-1000.000,0
1667501364.046,-216.797,3.906,-262.207,-63.965,0
1667501364.063,951.172,16.113,92.773,889.160,0
1667501364.067,55.176,-7.324,-124.023,-34.668,0
1667501364.071,-1000.000,-21.484,-528.809,-1000.000,0
1667501364.075,-597.168,-6.348,-382.324,-436.523,0
1667501364.079,776.367,11.230,75.684,800.293,0
1667501364.083,415.039,-15.625,-136.230,324.219,0
1667501364.087,-965.332,-35.156,-569.824,-970.215,0
1667501364.090,-890.625,-30.273,-627.930,-777.344,0
1667501364.094,448.242,-1.953,-362.305,543.945,0
1667501364.098,725.098,20.020,3.418,625.000,0
1667501364.102,-628.906,-11.230,-406.250,-712.402,0
1667501364.106,-1000.000,-16.602,-597.656,-1000.000,0
1667501364.093,57.617,11.719,-86.914,146.484,0
1667501364.097,931.641,21.484,163.574,826.660,0
1667501364.101,-235.840,-5.371,-358.887,-341.309,0
1667501364.105,-1000.000,-8.301,-627.441,-1000.000,0
1667501364.109,-307.129,15.137,-265.137,-202.148,0
1667501364.113,944.824,19.531,21.484,874.023,0
1667501364.117,140.137,-2.930,-290.527,48.828,0
1667501364.120,-1000.000,-7.812,-623.047,-1000.000,0
1667501364.124,-686.523,14.648,-450.195,-565.918,0
1667501364.128,699.707,33.203,9.766,737.793,0
1667501364.132,490.234,8.301,-196.777,431.641,0
1667501364.136,-901.367,-8.789,-667.969,-887.695,0
1667501364.139,-958.984,17.090,-444.336,-844.727,0
1667501364.143,324.219,28.320,-75.684,402.832,0
1667501364.147,780.762,21.484,-33.691,665.527,0
1667501364.151,-534.668,4.395,-411.133,-611.328,0
1667501364.155,-1000.000,3.906,-510.254,-988.281,0
1667501364.159,-50.293,19.531,-268.066,65.918,0
1667501364.163,895.508,15.625,-250.000,743.652,0
1667501364.166,-131.836,11.719,-496.582,-250.977,0
1667501364.170,-1000.000,21.484,-371.094,-991.699,0
1667501364.174,-388.672,16.602,-295.410,-238.770,0
1667501364.178,787.109,17.090,-109.375,666.504,0
1667501364.182,225.586,24.414,-155.762,45.898,0
1667501364.184,-955.078,29.785,-392.090,-906.738,0
1667501364.188,-678.711,25.391,-412.109,-539.551,0
1667501364.192,513.184,30.273,-128.906,410.645,0
1667501364.196,486.816,32.227,-28.809,238.770,0
1667501364.200,-679.199,20.020,-330.566,-679.688,0
1667501364.204,-807.617,6.836,-515.625,-626.465,0
1667501364.208,212.891,22.461,-277.832,212.402,0
1667501364.211,652.832,36.133,20.508,382.812,0
1667501364.215,-334.473,20.020,-264.648,-415.039,0
1667501364.219,-833.984,6.348,-490.723,-654.297,0
1667501364.223,-84.473,21.484,-333.496,-0.977,0
1667501364.227,633.789,35.645,7.812,391.602,0
1667501364.244,-27.832,17.578,-194.336,-197.754,0
1667501364.248,-766.602,13.672,-445.801,-644.043,0
1667501364.252,-298.828,29.785,-277.344,-178.711,0
1667501364.256,574.707,40.039,0.488,378.418,0
1667501364.260,244.141,17.090,-143.066,12.695,0
1667501364.264,-640.137,4.883,-445.312,-557.617,0
1667501364.268,-511.230,19.043,-338.867,-319.336,0
1667501364.271,395.996,26.367,-166.504,303.223,0
1667501364.275,477.051,20.508,-139.160,185.547,0
1667501364.279,-435.059,-11.230,-519.043,-425.781,0
1667501364.283,-626.953,0.488,-558.105,-434.082,0
1667501364.287,153.320,29.785,-100.586,113.281,0
1667501364.288,569.336,14.648,-38.574,272.949,0
1667501364.292,-189.941,3.906,-291.992,-285.156,0
1667501364.296,-653.320,15.137,-333.496,-488.281,0
1667501364.300,-86.914,20.020,-216.797,2.930,0
1667501364.304,546.875,11.719,-162.109,325.195,0
1667501364.308,46.387,0.977,-346.680,-104.980,0
1667501364.312,-627.441,12.695,-317.871,-466.309,0
1667501364.315,-305.176,24.902,-136.719,-149.902,0
1667501364.319,466.797,10.742,-187.012,291.016,0
1667501364.323,265.625,2.441,-369.629,36.621,0
1667501364.327,-529.785,21.973,-311.523,-448.730,0
1667501364.331,-485.840,23.926,-264.648,-284.668,0
1667501364.334,270.508,21.484,-223.145,209.961,0
1667501364.338,418.457,26.367,-221.191,163.574,0
1667501364.342,-344.727,25.391,-284.180,-320.801,0
1667501364.346,-571.289,20.996,-309.570,-347.656,0
1667501364.350,70.801,22.461,-265.625,91.309,0
1667501364.354,480.469,22.461,-223.633,225.098,0
1667501364.358,-143.555,8.789,-302.246,-198.242,0
1667501364.361,-615.234,5.371,-352.539,-396.484,0
1667501364.365,-151.855,1.953,-434.082,4.395,0
1667501364.369,458.008,15.137,-394.531,270.508,0
1667501364.373,78.613,34.180,-244.141,-98.633,0
1667501364.377,-542.480,17.090,-321.777,-368.652,0
1667501364.378,-310.059,11.719,-356.445,-90.332,0
1667501364.382,352.539,23.926,-176.270,239.746,0
1667501364.386,225.098,13.184,-172.852,23.438,0
1667501364.390,-465.820,0.977,-366.211,-328.613,0
1667501364.394,-482.422,3.418,-345.703,-203.125,0
1667501364.398,174.805,2.930,-274.414,161.621,0
1667501364.402,371.094,1.465,-250.488,129.395,0
1667501364.405,-274.414,-19.043,-433.594,-213.867,0
1667501364.409,-541.016,-22.461,-515.625,-238.770,0
1667501364.413,-27.344,2.930,-227.539,58.594,0
1667501364.417,389.160,-1.953,-208.008,149.414,0
1667501364.421,-88.379,-20.508,-374.512,-139.648,0
1667501364.424,-525.391,-15.137,-357.910,-258.301,0
1667501364.428,-187.988,-4.395,-246.094,-4.883,0
1667501364.432,370.117,-8.789,-268.066,173.340,0
1667501364.436,80.566,-10.254,-336.426,-79.102,0
1667501364.440,-448.730,-10.254,-341.309,-263.672,0
1667501364.444,-269.043,-16.602,-363.281,-51.758,0
1667501364.448,262.207,-10.254,-268.555,133.789,0
1667501364.451,246.094,-20.508,-470.215,6.348,0
1667501364.455,-375.000,-13.672,-504.395,-271.973,0
1667501364.459,-471.680,2.441,-203.125,-227.539,0
1667501364.463,103.027,-10.742,-239.746,67.871,0
1667501364.467,331.055,-19.531,-310.059,55.664,0
1667501364.468,-233.887,-30.273,-287.109,-219.238,0
1667501364.472,-504.395,-35.156,-234.863,-230.957,0
1667501364.476,-75.195,-23.926,-281.250,38.574,0
1667501364.480,338.867,1.953,-239.258,91.797,0
1667501364.484,-67.871,6.836,-214.844,-174.316,0
1667501364.488,-530.273,0.488,-291.504,-299.805,0
1667501364.492,-218.750,2.930,-368.164,-46.387,0
1667501364.495,346.191,15.625,-374.512,159.668,0
1667501364.499,111.328,31.250,-191.895,-59.570,0
1667501364.503,-480.469,26.855,-242.676,-265.625,0
1667501364.507,-383.789,24.414,-288.086,-94.727,0
1667501364.511,186.035,35.645,-111.816,149.902,0
1667501364.514,228.516,36.621,-140.625,49.316,0
1667501364.518,-348.145,28.320,-326.172,-204.102,0
1667501364.522,-486.328,41.016,-279.297,-159.668,0
1667501364.526,73.242,56.152,-152.832,140.625,0
1667501364.530,371.582,54.199,-96.191,164.551,0
1667501364.534,-168.945,40.527,-291.016,-106.934,0
1667501364.538,-527.832,31.250,-466.309,-159.668,0
1667501364.541,-108.887,40.527,-329.590,95.703,0
1667501364.545,379.395,42.969,-148.438,213.379,0
1667501364.549,2.441,16.113,-283.691,-9.766,0
1667501364.553,-520.996,2.930,-410.645,-175.781,0
1667501364.557,-299.316,18.066,-278.320,13.672,0
1667501364.558,274.414,19.043,-194.336,226.074,0
1667501364.562,96.191,-1.953,-331.055,70.312,0
1667501364.566,-540.039,-13.672,-413.086,-163.574,0
1667501364.570,-512.207,-8.789,-307.129,-72.754,0
1667501364.574,109.375,-2.930,-227.539,168.945,0
1667501364.578,229.492,-20.020,-407.715,106.934,0
1667501364.582,-398.438,-17.090,-497.559,-153.809,0
1667501364.585,-584.961,5.859,-270.996,-156.250,0
1667501364.589,-29.297,-5.859,-241.211,113.281,0
1667501364.593,348.633,-11.230,-324.707,175.293,0
1667501364.597,-167.480,-8.789,-358.887,-80.078,0
1667501364.601,-565.430,-8.789,-346.680,-154.297,0
1667501364.619,-168.945,-9.277,-350.586,85.449,0
1667501364.623,358.398,-9.766,-330.566,202.637,0
1667501364.627,42.969,-16.113,-342.285,-22.949,0
1667501364.631,-499.023,-16.113,-375.000,-181.641,0
1667501364.635,-288.086,-13.184,-378.906,7.324,0
1667501364.639,323.730,-21.484,-398.438,208.496,0
1667501364.643,217.773,-22.461,-401.855,62.988,0
1667501364.646,-401.855,-23.926,-438.477,-156.738,0
1667501364.650,-437.988,-26.855,-439.453,-63.477,0
1667501364.654,160.156,-16.602,-374.023,187.012,0
1667501364.658,349.609,-11.719,-315.918,134.277,0
1667501364.662,-254.395,-20.508,-323.730,-125.488,0
1667501364.664,-505.371,-31.250,-450.195,-116.211,0
1667501364.668,-7.812,-40.527,-517.578,143.555,0
1667501364.672,392.090,-22.461,-337.402,184.570,0
1667501364.676,-94.727,-15.137,-316.895,-60.059,0
1667501364.680,-549.805,-30.273,-457.520,-144.531,0
1667501364.684,-178.711,-33.203,-467.773,64.941,0
1667501364.688,341.797,-20.508,-359.863,177.246,0
1667501364.691,47.363,-23.926,-366.699,-29.297,0
1667501364.695,-464.844,-54.688,-567.871,-157.227,0
1667501364.699,-340.332,-50.293,-572.266,-21.484,0
1667501364.703,294.922,-24.414,-353.027,151.855,0
1667501364.707,298.340,-40.039,-441.406,33.203,0
1667501364.723,-367.188,-48.828,-504.395,-194.824,0
1667501364.727,-406.250,-40.039,-461.426,-139.160,0
1667501364.731,218.750,-36.621,-384.277,103.516,0
1667501364.735,448.730,-48.828,-409.180,92.285,0
1667501364.739,-185.547,-59.082,-547.363,-186.035,0
1667501364.743,-552.246,-58.105,-566.895,-240.234,0
1667501364.747,-54.688,-50.293,-519.531,10.254,0
1667501364.750,443.848,-42.969,-438.477,104.492,0
1667501364.754,-17.578,-60.059,-625.977,-122.070,0
1667501364.758,-569.336,-59.570,-690.918,-274.414,0
1667501364.762,-266.113,-33.203,-384.277,-99.121,0
1667501364.766,384.277,-36.621,-372.070,99.121,0
1667501364.768,153.809,-45.898,-466.309,-69.336,0
