timestamps,TP9,AF7,AF8,TP10,marker
1664561510.917,-116.699,-31.250,-38.086,-87.402,0
1664561510.921,-40.039,-27.832,-42.480,-59.570,0
1664561510.925,10.254,-26.367,-36.621,-41.016,0
1664561510.929,-67.871,-28.320,-39.551,-71.777,0
1664561510.933,-128.418,-30.762,-47.363,-95.703,0
1664561510.937,-60.547,-30.762,-48.828,-76.660,0
1664561510.941,5.371,-35.156,-52.246,-55.664,0
1664561510.944,-50.293,-37.598,-45.410,-64.941,0
1664561510.948,-119.629,-32.715,-40.039,-79.102,0
1664561510.952,-75.195,-21.973,-34.668,-63.965,0
1664561510.956,26.367,-5.859,-20.508,-22.949,0
1664561510.960,-2.441,-18.066,-27.832,-33.691,0
1664561510.963,-98.145,-38.574,-34.180,-72.754,0
1664561510.967,-90.820,-34.180,-24.414,-66.895,0
1664561510.971,0.000,-28.320,-25.391,-31.738,0
1664561510.975,11.719,-27.832,-25.879,-30.762,0
1664561510.979,-72.266,-34.668,-24.414,-68.359,0
1664561510.983,-94.727,-33.691,-22.461,-79.102,0
1664561510.987,-15.137,-39.062,-28.320,-48.340,0
1664561510.990,26.855,-46.387,-38.086,-32.715,0
1664561510.994,-44.922,-40.527,-43.457,-65.430,0
1664561510.998,-102.051,-31.738,-41.504,-83.496,0
1664561511.002,-44.434,-30.762,-34.180,-62.012,0
1664561511.006,34.668,-36.133,-36.621,-41.016,0
1664561511.008,-11.719,-40.527,-37.598,-59.082,0
1664561511.012,-102.051,-54.199,-41.504,-95.215,0
1664561511.016,-78.613,-53.711,-44.434,-89.355,0
1664561511.020,18.066,-39.551,-49.805,-49.316,0
1664561511.024,2.441,-31.738,-45.898,-51.270,0
1664561511.028,-85.938,-34.180,-37.109,-80.566,0
1664561511.032,-83.984,-32.715,-38.086,-78.125,0
1664561511.035,5.859,-27.832,-45.410,-49.805,0
1664561511.039,30.762,-32.715,-45.410,-45.898,0
1664561511.043,-50.781,-35.156,-43.457,-71.289,0
1664561511.047,-82.520,-33.691,-47.852,-80.566,0
1664561511.051,-7.812,-30.762,-43.945,-54.199,0
1664561511.053,45.410,-27.832,-40.527,-39.062,0
1664561511.057,-18.066,-27.344,-41.016,-60.547,0
1664561511.061,-81.543,-27.344,-43.945,-83.496,0
1664561511.065,-34.668,-26.855,-51.758,-70.801,0
1664561511.069,46.875,-34.180,-43.945,-39.062,0
1664561511.073,1.465,-29.297,-37.598,-50.781,0
1664561511.077,-83.008,-21.973,-39.062,-71.289,0
1664561511.080,-62.500,-26.855,-41.504,-62.988,0
1664561511.084,30.762,-23.926,-43.457,-37.109,0
1664561511.088,26.367,-22.461,-38.086,-33.691,0
1664561511.092,-64.941,-31.250,-34.180,-61.523,0
1664561511.096,-84.473,-41.992,-35.645,-75.684,0
1664561511.128,3.906,-35.645,-36.621,-47.363,0
1664561511.132,36.133,-24.902,-31.738,-34.180,0
1664561511.136,-49.805,-29.785,-35.645,-62.988,0
1664561511.140,-97.656,-27.344,-36.621,-76.172,0
1664561511.144,-40.527,-33.691,-37.109,-54.688,0
1664561511.148,20.508,-45.410,-37.109,-36.621,0
1664561511.152,-35.156,-39.062,-30.273,-60.547,0
1664561511.155,-101.562,-31.250,-29.785,-88.379,0
1664561511.159,-58.594,-27.344,-25.879,-67.383,0
1664561511.163,26.367,-27.832,-20.020,-31.738,0
1664561511.167,-5.371,-40.039,-26.855,-47.363,0
1664561511.171,-89.844,-28.809,-28.809,-71.777,0
1664561511.158,-79.590,-19.531,-24.902,-64.941,0
1664561511.162,6.348,-30.762,-32.227,-42.480,0
1664561511.166,5.859,-45.410,-33.691,-44.922,0
1664561511.170,-82.520,-41.016,-30.273,-69.336,0
1664561511.174,-99.121,-20.996,-33.203,-67.383,0
1664561511.178,-17.578,-25.391,-32.715,-43.945,0
1664561511.182,16.113,-41.504,-31.738,-36.621,0
1664561511.185,-61.035,-45.898,-31.250,-58.594,0
1664561511.189,-112.793,-41.504,-26.855,-71.777,0
1664561511.193,-46.387,-35.156,-25.879,-52.734,0
1664561511.197,32.227,-30.762,-24.414,-35.156,0
1664561511.201,-21.484,-19.043,-27.832,-58.105,0
1664561511.202,-93.750,-20.020,-25.391,-82.520,0
1664561511.206,-61.523,-35.156,-29.785,-70.801,0
1664561511.210,25.879,-38.574,-34.668,-39.062,0
1664561511.214,13.672,-33.203,-32.715,-48.340,0
1664561511.218,-72.266,-29.785,-33.203,-71.289,0
1664561511.222,-78.613,-30.273,-41.992,-70.312,0
1664561511.226,11.719,-33.203,-41.504,-42.969,0
1664561511.229,29.297,-30.762,-30.273,-31.738,0
1664561511.233,-63.965,-30.762,-31.738,-60.547,0
1664561511.237,-89.355,-36.133,-40.527,-72.266,0
1664561511.241,-5.371,-35.645,-42.969,-40.039,0
1664561511.245,37.109,-28.809,-37.598,-19.043,0
1664561511.249,-37.109,-24.902,-36.621,-45.898,0
1664561511.253,-82.031,-20.996,-32.227,-60.547,0
1664561511.257,-17.090,-16.602,-31.250,-34.668,0
1664561511.261,49.805,-23.438,-31.250,-11.719,0
1664561511.265,-7.324,-32.227,-31.738,-33.691,0
1664561511.269,-85.938,-34.668,-35.156,-62.988,0
1664561511.273,-63.477,-34.180,-38.086,-56.641,0
1664561511.276,25.391,-40.039,-32.227,-20.996,0
1664561511.280,7.812,-52.246,-31.738,-28.809,0
1664561511.284,-87.891,-48.340,-40.527,-71.777,0
1664561511.288,-84.473,-36.133,-36.133,-67.871,0
1664561511.292,14.160,-31.738,-38.086,-36.621,0
1664561511.308,34.180,-32.227,-43.457,-31.250,0
1664561511.312,-51.270,-22.461,-36.621,-61.035,0
1664561511.316,-88.867,-18.066,-35.156,-81.543,0
1664561511.320,-21.484,-32.227,-39.062,-59.570,0
1664561511.324,36.133,-38.086,-38.574,-41.992,0
1664561511.328,-35.156,-41.016,-37.109,-71.289,0
1664561511.332,-105.469,-43.945,-37.598,-87.891,0
1664561511.335,-62.500,-42.480,-34.180,-56.152,0
1664561511.339,18.066,-47.852,-32.227,-30.273,0
1664561511.343,-20.508,-43.945,-24.902,-50.293,0
1664561511.347,-103.516,-28.320,-19.531,-71.777,0
1664561511.351,-84.961,-33.203,-29.785,-60.059,0
1664561511.337,-1.953,-47.852,-35.156,-41.992,0
1664561511.341,-3.418,-43.457,-24.414,-50.781,0
1664561511.345,-92.773,-43.945,-24.414,-83.496,0
1664561511.349,-112.793,-34.668,-23.926,-86.426,0
1664561511.353,-29.785,-31.250,-21.484,-60.547,0
1664561511.357,13.184,-28.809,-29.297,-46.387,0
1664561511.361,-64.941,-23.438,-31.250,-68.848,0
1664561511.364,-118.164,-35.156,-24.902,-86.426,0
1664561511.368,-48.340,-50.293,-33.691,-65.430,0
1664561511.372,20.020,-45.410,-37.598,-40.527,0
1664561511.376,-38.086,-41.504,-23.926,-50.293,0
1664561511.380,-114.746,-44.434,-24.902,-72.754,0
1664561511.397,-68.359,-38.574,-32.227,-60.547,0
1664561511.401,23.438,-38.574,-28.320,-31.738,0
1664561511.405,-16.113,-46.387,-28.320,-43.457,0
1664561511.409,-103.516,-47.852,-36.621,-75.684,0
1664561511.413,-87.891,-41.016,-29.297,-73.242,0
1664561511.417,2.930,-42.969,-19.043,-40.527,0
1664561511.421,9.277,-41.992,-20.508,-29.785,0
1664561511.424,-84.961,-34.180,-23.926,-64.453,0
1664561511.428,-99.609,-31.738,-19.531,-74.707,0
1664561511.432,-18.066,-38.086,-25.391,-46.387,0
1664561511.436,17.090,-43.945,-37.109,-36.133,0
1664561511.440,-57.617,-40.039,-33.691,-64.453,0
1664561511.428,-106.934,-36.621,-36.133,-87.402,0
1664561511.432,-38.574,-35.645,-39.062,-62.988,0
1664561511.436,28.809,-29.297,-35.645,-41.504,0
1664561511.440,-29.785,-28.320,-34.668,-62.500,0
1664561511.444,-104.492,-31.250,-29.785,-83.008,0
1664561511.448,-69.336,-28.320,-30.762,-69.824,0
1664561511.452,20.020,-18.066,-35.156,-33.691,0
1664561511.455,-7.812,-20.020,-31.250,-44.922,0
1664561511.459,-100.586,-24.414,-32.715,-79.102,0
1664561511.463,-102.051,-20.508,-32.715,-73.730,0
1664561511.467,-11.230,-26.367,-33.203,-54.688,0
1664561511.471,6.836,-31.738,-31.250,-54.688,0
1664561511.487,-76.660,-29.785,-23.438,-78.613,0
1664561511.491,-104.492,-34.668,-16.602,-85.938,0
1664561511.495,-32.715,-35.156,-17.578,-55.664,0
1664561511.499,16.602,-29.297,-29.297,-40.527,0
1664561511.503,-58.105,-27.832,-40.039,-65.430,0
1664561511.507,-125.488,-31.738,-37.109,-81.055,0
1664561511.511,-69.336,-40.039,-36.621,-62.988,0
1664561511.514,11.719,-30.762,-27.344,-31.738,0
1664561511.518,-42.969,-31.738,-20.996,-49.805,0
1664561511.522,-125.000,-36.133,-22.461,-73.242,0
1664561511.526,-97.656,-31.738,-28.809,-63.965,0
1664561511.530,-21.973,-37.109,-38.574,-45.410,0
1664561511.556,-43.945,-38.086,-34.180,-56.641,0
1664561511.560,-126.465,-34.180,-27.344,-83.008,0
1664561511.564,-132.812,-38.086,-27.344,-79.102,0
1664561511.568,-40.527,-33.691,-26.855,-47.363,0
1664561511.572,-5.859,-27.344,-27.832,-41.504,0
1664561511.576,-96.191,-34.668,-29.297,-70.801,0
1664561511.580,-139.648,-39.551,-31.250,-81.543,0
1664561511.583,-52.246,-28.320,-29.785,-51.758,0
1664561511.587,14.160,-20.020,-17.090,-26.855,0
1664561511.591,-60.547,-29.785,-13.672,-50.781,0
1664561511.595,-132.812,-45.410,-21.973,-68.359,0
1664561511.599,-76.660,-34.668,-23.438,-47.852,0
1664561511.579,14.160,-22.461,-19.043,-18.555,0
1664561511.583,-26.367,-28.320,-25.879,-37.598,0
1664561511.587,-112.793,-27.344,-34.668,-66.895,0
1664561511.591,-98.145,-28.809,-37.598,-57.617,0
1664561511.595,-1.465,-36.133,-42.969,-29.297,0
1664561511.599,-7.324,-38.574,-43.945,-33.203,0
1664561511.603,-97.168,-39.551,-44.922,-65.430,0
1664561511.606,-88.867,-28.320,-37.598,-52.246,0
1664561511.610,-5.859,-24.414,-29.785,-17.578,0
1664561511.614,3.418,-37.109,-31.250,-31.250,0
1664561511.618,-81.055,-36.133,-30.273,-62.012,0
1664561511.622,-124.023,-32.715,-27.344,-68.848,0
1664561511.637,-58.105,-35.645,-26.855,-36.133,0
1664561511.641,6.836,-39.062,-26.855,-14.160,0
1664561511.645,-52.246,-43.457,-22.461,-35.156,0
1664561511.649,-127.930,-41.016,-25.391,-60.547,0
1664561511.653,-86.426,-31.250,-32.227,-47.363,0
1664561511.657,8.789,-26.855,-35.645,-20.020,0
1664561511.661,-23.438,-24.414,-37.109,-41.016,0
1664561511.664,-104.004,-20.996,-32.227,-64.941,0
1664561511.668,-94.238,-24.902,-24.902,-52.734,0
1664561511.672,-14.648,-29.785,-28.320,-31.250,0
1664561511.676,-5.859,-33.203,-28.809,-35.156,0
1664561511.680,-86.914,-28.809,-26.367,-60.547,0
1664561511.698,-118.164,-38.574,-28.320,-67.871,0
1664561511.702,-41.504,-45.410,-31.250,-45.410,0
1664561511.706,7.324,-33.691,-31.250,-34.668,0
1664561511.710,-69.824,-28.320,-30.762,-62.012,0
1664561511.714,-131.348,-27.344,-33.203,-76.172,0
1664561511.718,-70.312,-30.762,-30.273,-53.223,0
1664561511.722,3.418,-35.156,-28.809,-26.855,0
1664561511.725,-43.457,-33.203,-23.926,-40.039,0
1664561511.729,-108.398,-26.367,-11.719,-60.059,0
1664561511.733,-77.637,-29.785,-19.043,-58.105,0
1664561511.737,10.742,-42.969,-30.273,-29.297,0
1664561511.741,-4.883,-36.133,-27.832,-30.762,0
1664561511.712,-101.562,-29.785,-23.926,-65.918,0
1664561511.716,-103.027,-35.156,-20.996,-60.547,0
1664561511.720,1.465,-41.504,-21.484,-30.762,0
1664561511.724,23.438,-41.992,-18.555,-30.762,0
1664561511.728,-69.824,-36.621,-20.996,-56.152,0
1664561511.732,-103.516,-36.621,-24.414,-69.824,0
1664561511.736,-18.066,-37.598,-22.949,-38.574,0
1664561511.739,42.969,-35.156,-16.602,-9.277,0
1664561511.743,-28.320,-38.086,-11.719,-37.598,0
1664561511.747,-89.355,-41.016,-20.020,-57.129,0
1664561511.751,-27.832,-42.480,-26.855,-32.715,0
1664561511.755,45.410,-35.645,-25.391,-2.441,0
1664561511.758,-2.930,-28.320,-23.926,-21.484,0
1664561511.762,-79.590,-32.227,-22.949,-54.688,0
1664561511.766,-60.547,-32.227,-20.996,-45.898,0
1664561511.770,27.832,-28.809,-24.902,-17.578,0
1664561511.774,12.207,-35.156,-35.156,-28.809,0
1664561511.778,-84.961,-45.898,-41.504,-61.523,0
1664561511.782,-87.402,-47.852,-36.621,-62.988,0
1664561511.785,8.301,-46.387,-25.879,-32.227,0
1664561511.789,34.668,-45.898,-21.973,-31.250,0
1664561511.793,-52.246,-34.180,-25.879,-55.176,0
1664561511.797,-97.168,-20.996,-21.484,-53.223,0
1664561511.801,-20.508,-17.090,-17.090,-27.344,0
1664561511.817,39.062,-29.785,-31.250,-22.949,0
1664561511.821,-29.297,-32.715,-38.086,-53.223,0
1664561511.825,-96.680,-26.855,-39.062,-72.266,0
1664561511.829,-58.594,-32.227,-41.992,-57.129,0
1664561511.833,21.484,-38.086,-40.527,-38.086,0
1664561511.837,-11.230,-30.273,-19.043,-43.945,0
1664561511.841,-104.492,-24.902,-15.137,-71.289,0
1664561511.844,-90.820,-35.156,-31.738,-74.707,0
1664561511.848,1.953,-43.457,-38.574,-41.992,0
1664561511.852,0.000,-34.668,-32.715,-38.574,0
1664561511.856,-91.309,-35.156,-24.902,-66.406,0
1664561511.860,-104.492,-40.039,-28.809,-76.172,0
1664561511.863,-15.625,-37.598,-34.668,-47.363,0
1664561511.867,18.066,-35.645,-28.809,-32.715,0
1664561511.871,-67.871,-27.832,-26.367,-58.594,0
1664561511.875,-116.699,-31.738,-28.320,-74.707,0
1664561511.879,-48.340,-37.598,-30.273,-54.199,0
1664561511.883,19.531,-22.949,-29.297,-32.227,0
1664561511.887,-38.086,-23.926,-25.879,-54.199,0
1664561511.890,-118.164,-39.551,-25.879,-83.008,0
1664561511.894,-81.543,-41.504,-21.484,-60.059,0
1664561511.898,9.766,-39.551,-25.879,-23.438,0
1664561511.902,-25.391,-41.992,-35.645,-44.922,0
1664561511.906,-110.352,-33.691,-29.297,-76.660,0
1664561511.923,-89.844,-19.531,-22.461,-65.430,0
1664561511.927,3.418,-18.066,-20.508,-36.133,0
1664561511.931,7.324,-30.273,-22.461,-39.551,0
1664561511.935,-77.637,-35.156,-19.043,-61.035,0
1664561511.939,-97.168,-33.203,-17.578,-65.918,0
1664561511.943,-17.578,-36.133,-28.809,-41.016,0
1664561511.947,19.531,-34.180,-34.668,-30.273,0
1664561511.950,-56.641,-28.320,-34.668,-63.477,0
1664561511.954,-107.910,-24.414,-34.180,-72.266,0
1664561511.958,-48.828,-27.832,-38.086,-46.387,0
1664561511.962,30.273,-33.203,-36.621,-28.809,0
1664561511.966,-17.578,-37.598,-35.156,-40.527,0
1664561511.953,-100.098,-37.109,-41.504,-62.012,0
1664561511.957,-69.336,-39.551,-36.133,-59.082,0
1664561511.961,24.414,-28.809,-30.762,-28.809,0
1664561511.965,2.930,-10.742,-30.273,-33.203,0
1664561511.969,-89.844,-28.809,-31.250,-63.965,0
1664561511.973,-87.891,-42.480,-32.715,-63.477,0
1664561511.977,6.836,-33.691,-30.273,-31.738,0
1664561511.980,29.297,-26.367,-21.484,-21.484,0
1664561511.984,-61.035,-35.645,-26.855,-59.082,0
1664561511.988,-96.680,-31.250,-30.762,-73.242,0
1664561511.992,-28.320,-22.461,-30.762,-44.922,0
1664561511.996,17.578,-37.598,-34.180,-25.879,0
1664561512.012,-44.434,-37.598,-36.133,-43.457,0
1664561512.016,-102.051,-28.809,-35.645,-74.219,0
1664561512.020,-46.387,-28.809,-33.203,-60.059,0
1664561512.024,38.574,-33.203,-33.203,-31.250,0
1664561512.028,-5.859,-33.203,-31.738,-47.363,0
1664561512.032,-93.262,-20.508,-26.855,-65.918,0
1664561512.036,-75.195,-17.578,-39.062,-68.359,0
1664561512.039,18.066,-24.902,-45.410,-48.828,0
1664561512.043,2.441,-28.320,-41.992,-39.551,0
1664561512.047,-96.680,-31.738,-46.387,-78.125,0
1664561512.051,-95.703,-23.926,-34.668,-80.566,0
1664561512.055,-6.348,-12.207,-21.973,-41.016,0
1664561512.044,19.531,-12.207,-27.344,-36.621,0
1664561512.048,-64.453,-27.832,-33.691,-75.684,0
1664561512.052,-110.352,-38.574,-37.598,-94.727,0
1664561512.056,-38.574,-28.809,-38.574,-68.848,0
1664561512.060,26.367,-26.855,-42.480,-47.852,0
1664561512.064,-37.598,-33.203,-48.828,-70.801,0
1664561512.068,-100.098,-30.273,-44.434,-91.797,0
1664561512.071,-50.781,-13.672,-28.320,-67.871,0
1664561512.075,28.809,-11.719,-25.391,-40.527,0
1664561512.079,-3.906,-24.902,-33.691,-53.223,0
1664561512.083,-86.426,-29.297,-30.273,-81.543,0
1664561512.087,-77.148,-35.156,-26.855,-75.684,0
1664561512.087,11.719,-31.250,-32.715,-49.805,0
1664561512.091,22.461,-12.695,-28.320,-45.898,0
1664561512.095,-67.383,-26.367,-25.391,-71.289,0
1664561512.099,-96.680,-40.527,-27.832,-79.590,0
1664561512.103,-11.230,-36.621,-33.691,-55.176,0
1664561512.107,27.344,-37.109,-32.227,-43.457,0
1664561512.111,-63.477,-28.809,-33.203,-62.012,0
1664561512.114,-115.234,-22.461,-40.527,-69.336,0
1664561512.118,-46.387,-24.902,-38.574,-55.176,0
1664561512.122,20.996,-24.414,-38.086,-35.156,0
1664561512.126,-32.227,-19.531,-45.410,-54.199,0
1664561512.130,-103.027,-30.762,-41.016,-84.961,0
1664561512.150,-66.895,-32.715,-40.039,-76.172,0
1664561512.154,21.484,-24.902,-41.992,-44.434,0
1664561512.158,-0.488,-23.438,-33.691,-56.641,0
1664561512.162,-90.332,-15.625,-27.832,-87.891,0
1664561512.166,-89.355,-16.113,-28.809,-83.984,0
1664561512.170,-1.465,-22.949,-28.320,-52.246,0
1664561512.174,12.207,-24.414,-37.598,-46.387,0
1664561512.177,-74.219,-29.297,-46.875,-77.148,0
1664561512.181,-104.004,-31.250,-38.574,-84.473,0
1664561512.185,-23.926,-27.832,-37.109,-59.082,0
1664561512.189,27.832,-16.113,-32.227,-42.969,0
1664561512.193,-51.270,-20.508,-28.320,-66.406,0
1664561512.180,-117.676,-41.016,-33.203,-89.844,0
1664561512.184,-58.105,-39.551,-29.785,-71.289,0
1664561512.188,12.207,-30.762,-38.574,-49.805,0
1664561512.192,-42.969,-24.902,-39.062,-68.848,0
1664561512.196,-121.094,-20.508,-33.691,-90.820,0
1664561512.200,-98.145,-24.414,-37.109,-83.008,0
1664561512.204,-11.230,-41.504,-41.504,-59.570,0
1664561512.207,-22.949,-43.945,-42.480,-62.500,0
1664561512.211,-112.305,-34.180,-46.875,-94.727,0
1664561512.215,-114.746,-29.785,-41.016,-85.938,0
1664561512.219,-23.926,-20.508,-25.391,-46.387,0
1664561512.223,-4.883,-18.555,-25.391,-44.434,0
1664561512.238,-89.355,-30.762,-20.996,-75.684,0
1664561512.242,-122.070,-37.598,-17.578,-89.355,0
1664561512.246,-47.363,-28.809,-27.344,-61.035,0
1664561512.250,6.348,-24.902,-34.180,-43.457,0
1664561512.254,-63.477,-22.461,-31.250,-62.500,0
1664561512.258,-118.652,-10.742,-25.391,-81.543,0
1664561512.262,-61.035,-7.324,-24.414,-65.918,0
1664561512.265,11.719,-21.484,-28.809,-46.387,0
1664561512.269,-34.668,-33.203,-25.879,-61.035,0
1664561512.273,-111.328,-30.762,-20.508,-78.125,0
1664561512.277,-95.703,-25.391,-31.250,-73.730,0
1664561512.281,-7.812,-20.508,-32.227,-42.969,0
1664561512.283,-3.906,-12.207,-27.344,-38.574,0
1664561512.287,-94.727,-17.578,-37.109,-73.242,0
1664561512.291,-114.258,-34.180,-38.574,-84.961,0
1664561512.295,-27.832,-33.691,-32.227,-53.223,0
1664561512.299,2.441,-28.809,-31.738,-41.504,0
1664561512.303,-80.078,-27.344,-28.320,-67.383,0
1664561512.307,-126.953,-26.855,-31.250,-78.613,0
1664561512.310,-59.570,-24.414,-37.598,-58.594,0
1664561512.314,4.883,-30.762,-38.574,-38.086,0
1664561512.318,-60.547,-35.645,-41.504,-68.359,0
1664561512.322,-133.789,-35.156,-38.086,-97.656,0
1664561512.326,-92.285,-42.480,-41.016,-84.961,0
1664561512.344,-2.441,-37.598,-39.062,-55.664,0
1664561512.348,-26.855,-30.273,-35.645,-65.918,0
1664561512.352,-116.699,-33.691,-30.762,-90.820,0
1664561512.356,-111.328,-39.062,-20.996,-80.566,0
1664561512.360,-15.137,-41.992,-18.066,-48.828,0
1664561512.364,-15.625,-49.316,-25.391,-53.711,0
1664561512.368,-105.957,-39.551,-20.996,-81.543,0
1664561512.371,-124.512,-24.902,-20.020,-80.078,0
1664561512.375,-39.551,-30.762,-31.250,-50.781,0
1664561512.379,-8.301,-36.133,-33.691,-51.758,0
1664561512.383,-85.938,-42.969,-30.273,-84.961,0
1664561512.387,-132.324,-38.574,-30.273,-94.727,0
1664561512.375,-71.289,-40.527,-32.715,-68.359,0
1664561512.379,0.977,-41.504,-34.668,-44.922,0
1664561512.383,-53.711,-31.250,-28.320,-61.523,0
1664561512.387,-122.559,-32.227,-28.320,-86.426,0
1664561512.391,-78.613,-29.297,-33.203,-76.660,0
1664561512.395,6.836,-33.691,-31.250,-52.734,0
1664561512.399,-17.578,-42.969,-21.973,-58.594,0
1664561512.402,-92.773,-31.738,-18.555,-76.660,0
1664561512.406,-83.984,-19.531,-24.414,-68.359,0
1664561512.410,4.395,-24.414,-20.996,-38.086,0
1664561512.414,12.207,-28.809,-21.484,-38.574,0
1664561512.418,-76.660,-24.902,-22.461,-63.477,0
1664561512.418,-107.910,-22.461,-20.996,-76.660,0
1664561512.422,-30.762,-20.996,-19.043,-58.594,0
1664561512.426,20.996,-23.438,-19.043,-40.527,0
1664561512.430,-47.852,-31.738,-21.484,-67.383,0
1664561512.434,-96.680,-30.762,-25.879,-90.332,0
1664561512.438,-37.109,-32.227,-23.926,-69.336,0
1664561512.442,22.949,-37.109,-29.297,-53.223,0
1664561512.445,-25.879,-44.922,-27.832,-62.988,0
1664561512.449,-101.562,-47.363,-20.508,-79.102,0
1664561512.453,-83.496,-33.691,-27.832,-75.195,0
1664561512.457,11.230,-18.555,-20.508,-44.434,0
1664561512.461,-0.977,-17.090,-13.184,-46.387,0
1664561512.478,-98.145,-25.879,-23.438,-76.660,0
1664561512.482,-103.516,-25.391,-20.508,-78.613,0
1664561512.486,0.000,-20.508,-15.137,-48.828,0
1664561512.490,28.320,-23.926,-15.137,-42.969,0
1664561512.494,-59.082,-23.438,-17.578,-74.707,0
1664561512.498,-97.656,-30.273,-27.344,-84.961,0
1664561512.502,-29.297,-38.574,-26.855,-48.340,0
1664561512.505,19.531,-33.203,-24.414,-27.832,0
1664561512.509,-55.176,-33.203,-26.367,-62.988,0
1664561512.513,-122.559,-34.668,-18.555,-80.566,0
1664561512.517,-74.219,-29.785,-16.602,-60.547,0
1664561512.521,5.859,-32.227,-29.785,-41.504,0
1664561512.508,-30.762,-30.273,-28.320,-55.176,0
1664561512.512,-112.793,-31.250,-24.902,-83.984,0
1664561512.516,-86.914,-34.668,-31.250,-76.172,0
1664561512.520,11.719,-36.133,-32.227,-39.551,0
1664561512.524,1.953,-26.855,-21.973,-40.039,0
1664561512.528,-85.938,-20.996,-16.602,-66.895,0
1664561512.532,-97.656,-20.996,-25.879,-69.336,0
1664561512.535,-9.277,-22.461,-32.227,-37.109,0
1664561512.539,30.273,-20.508,-29.297,-26.855,0
1664561512.543,-48.340,-12.695,-25.879,-50.293,0
1664561512.547,-100.098,-16.113,-24.414,-59.082,0
1664561512.551,-26.855,-25.879,-24.414,-43.457,0
1664561512.568,49.316,-23.438,-19.531,-22.949,0
1664561512.572,-10.742,-8.789,-14.160,-37.109,0
1664561512.576,-92.773,-14.648,-14.160,-59.082,0
1664561512.580,-55.176,-23.926,-20.996,-44.434,0
1664561512.584,39.551,-16.113,-22.949,-13.672,0
1664561512.588,8.789,-15.137,-19.531,-24.902,0
1664561512.592,-86.914,-23.438,-23.926,-57.129,0
1664561512.595,-73.730,-30.762,-23.438,-47.852,0
1664561512.599,26.855,-22.461,-25.879,-16.602,0
1664561512.603,33.691,-14.648,-26.855,-16.113,0
1664561512.607,-62.012,-13.672,-28.809,-44.434,0
1664561512.611,-89.844,-24.902,-39.551,-61.035,0
1664561512.614,-1.465,-35.645,-35.645,-38.086,0
1664561512.618,39.551,-29.785,-35.156,-21.484,0
1664561512.622,-39.551,-22.461,-38.574,-49.805,0
1664561512.626,-92.773,-21.484,-25.391,-65.918,0
1664561512.630,-35.156,-31.250,-24.902,-43.945,0
1664561512.634,27.832,-39.062,-30.273,-22.461,0
1664561512.638,-27.832,-39.062,-32.715,-45.898,0
1664561512.641,-101.562,-32.715,-31.738,-78.125,0
1664561512.645,-69.336,-38.574,-25.879,-66.895,0
1664561512.649,19.531,-34.668,-32.715,-20.508,0
1664561512.653,-6.836,-22.949,-39.062,-27.344,0
1664561512.657,-94.727,-28.809,-32.227,-63.477,0
1664561512.658,-91.309,-30.762,-28.320,-59.082,0
1664561512.662,0.000,-22.949,-24.414,-25.879,0
1664561512.666,16.602,-21.973,-22.461,-24.902,0
1664561512.670,-70.312,-27.832,-23.438,-54.199,0
1664561512.674,-92.773,-28.809,-22.949,-55.176,0
1664561512.678,-16.602,-21.973,-19.531,-30.762,0
1664561512.682,22.461,-25.879,-20.996,-29.785,0
1664561512.685,-57.617,-36.133,-33.691,-67.871,0
1664561512.689,-114.258,-34.668,-34.180,-84.473,0
1664561512.693,-60.547,-39.062,-26.367,-53.711,0
1664561512.697,20.020,-37.598,-32.715,-33.203,0
1664561512.701,-19.043,-33.691,-29.785,-49.805,0
1664561512.703,-107.422,-37.109,-23.926,-66.406,0
1664561512.707,-84.473,-34.180,-26.367,-60.059,0
1664561512.711,13.672,-28.809,-24.902,-29.297,0
1664561512.715,-0.977,-26.367,-23.926,-34.668,0
1664561512.719,-96.191,-25.879,-25.391,-69.336,0
1664561512.723,-103.516,-29.785,-26.855,-64.453,0
1664561512.727,-14.160,-33.203,-30.273,-29.785,0
1664561512.730,10.254,-38.574,-32.227,-27.344,0
1664561512.734,-76.660,-38.574,-26.855,-52.734,0
1664561512.738,-113.281,-36.133,-27.344,-62.012,0
1664561512.742,-36.621,-28.809,-28.809,-35.645,0
1664561512.746,22.461,-23.438,-23.438,-20.508,0
1664561512.749,-35.156,-29.785,-20.996,-44.922,0
1664561512.753,-106.934,-29.297,-27.344,-63.477,0
1664561512.757,-64.453,-28.809,-33.203,-54.688,0
1664561512.761,19.043,-42.969,-35.645,-35.156,0
1664561512.765,-23.438,-52.246,-40.039,-48.828,0
1664561512.769,-108.398,-57.617,-34.668,-74.707,0
1664561512.773,-89.355,-54.199,-30.762,-71.777,0
1664561512.776,15.625,-27.832,-25.879,-32.227,0
1664561512.780,9.766,-22.949,-24.414,-33.203,0
1664561512.784,-84.961,-41.992,-28.320,-78.125,0
1664561512.788,-99.609,-49.316,-32.715,-83.984,0
1664561512.792,-16.602,-36.133,-33.203,-55.664,0
1664561512.793,26.367,-22.949,-36.621,-45.898,0
1664561512.797,-57.129,-29.297,-48.340,-78.125,0
1664561512.801,-106.934,-44.922,-41.504,-92.285,0
1664561512.805,-38.574,-41.504,-32.227,-68.359,0
1664561512.809,24.902,-36.133,-33.691,-46.875,0
1664561512.813,-28.809,-32.715,-28.320,-58.594,0
1664561512.817,-101.074,-29.297,-26.367,-83.496,0
1664561512.820,-64.941,-23.438,-30.762,-62.988,0
1664561512.824,22.949,-18.066,-39.062,-31.250,0
1664561512.828,-7.812,-25.391,-40.039,-49.805,0
1664561512.832,-86.426,-22.461,-31.738,-78.613,0
1664561512.836,-74.707,-19.531,-27.832,-75.195,0
1664561512.854,4.883,-22.949,-29.297,-48.828,0
1664561512.858,11.230,-17.578,-30.273,-44.434,0
1664561512.862,-70.801,-23.926,-21.484,-70.312,0
1664561512.866,-92.773,-29.297,-15.137,-77.148,0
1664561512.870,-10.742,-21.973,-24.902,-49.316,0
1664561512.874,28.809,-18.555,-26.855,-44.922,0
1664561512.878,-43.457,-22.949,-22.461,-66.895,0
1664561512.881,-100.586,-21.484,-29.785,-75.195,0
1664561512.885,-44.434,-18.555,-40.039,-62.500,0
1664561512.889,36.133,-15.625,-44.434,-44.434,0
1664561512.893,-20.020,-15.625,-36.133,-57.617,0
1664561512.897,-99.609,-21.484,-22.949,-71.777,0
1664561512.898,-62.500,-27.832,-24.414,-60.059,0
1664561512.902,34.668,-26.855,-26.367,-32.227,0
1664561512.906,18.066,-23.438,-22.949,-39.062,0
1664561512.910,-80.566,-26.855,-26.367,-78.125,0
1664561512.914,-83.008,-25.879,-31.738,-79.102,0
1664561512.918,18.555,-14.160,-29.297,-31.738,0
1664561512.922,34.668,-16.113,-24.902,-21.973,0
1664561512.925,-55.176,-16.602,-26.855,-63.965,0
1664561512.929,-88.379,-9.277,-28.320,-75.684,0
1664561512.933,-20.996,-19.043,-26.855,-42.480,0
1664561512.937,29.297,-23.438,-26.367,-27.832,0
1664561512.941,-40.039,-26.855,-22.461,-58.594,0
1664561512.930,-97.168,-28.809,-18.555,-72.266,0
1664561512.934,-41.992,-30.273,-18.555,-59.570,0
1664561512.938,26.367,-30.273,-25.879,-42.480,0
1664561512.942,-22.461,-21.973,-26.855,-59.570,0
1664561512.946,-94.727,-14.160,-21.484,-84.473,0
1664561512.950,-70.801,-13.672,-27.832,-71.289,0
1664561512.954,17.090,-20.996,-31.250,-42.969,0
1664561512.957,4.395,-12.207,-26.855,-46.875,0
1664561512.961,-89.844,-15.137,-28.809,-80.078,0
1664561512.965,-106.934,-39.062,-38.086,-79.590,0
1664561512.969,-14.648,-39.551,-33.691,-51.270,0
1664561512.973,15.137,-37.598,-24.414,-53.711,0
1664561512.989,-80.566,-40.039,-23.926,-78.613,0
1664561512.993,-121.094,-30.762,-25.879,-83.008,0
1664561512.997,-40.527,-22.461,-23.438,-56.152,0
1664561513.001,11.719,-27.832,-24.414,-45.410,0
1664561513.005,-54.199,-29.297,-24.902,-68.848,0
1664561513.009,-108.887,-22.949,-20.996,-72.754,0
1664561513.013,-69.336,-30.762,-21.973,-58.594,0
1664561513.016,17.578,-28.320,-21.973,-41.016,0
1664561513.020,-12.695,-18.066,-18.066,-48.340,0
1664561513.024,-102.051,-14.648,-23.926,-77.637,0
1664561513.028,-84.961,-14.648,-20.996,-72.754,0
1664561513.032,4.883,-26.367,-19.531,-46.875,0
1664561513.034,2.930,-34.668,-20.020,-41.504,0
1664561513.038,-79.590,-25.879,-18.555,-66.406,0
1664561513.042,-95.703,-24.414,-28.809,-82.031,0
1664561513.046,-6.348,-29.785,-35.156,-56.152,0
1664561513.050,24.414,-37.598,-29.785,-47.852,0
1664561513.054,-72.266,-39.062,-27.832,-78.613,0
1664561513.058,-111.816,-35.156,-20.020,-83.496,0
1664561513.061,-40.039,-34.668,-11.719,-57.617,0
1664561513.065,12.207,-33.691,-14.160,-40.039,0
1664561513.069,-53.223,-39.062,-30.273,-62.500,0
1664561513.073,-121.582,-43.457,-39.062,-90.820,0
1664561513.077,-73.730,-34.668,-36.621,-72.266,0
1664561513.124,18.066,-30.762,-30.273,-38.574,0
1664561513.128,-9.766,-36.621,-26.855,-49.316,0
1664561513.132,-91.309,-33.203,-25.879,-85.449,0
1664561513.136,-85.938,-34.180,-22.949,-83.984,0
1664561513.140,4.395,-37.598,-21.973,-41.504,0
1664561513.144,15.137,-25.391,-15.625,-31.250,0
1664561513.148,-68.848,-28.809,-20.508,-63.477,0
1664561513.151,-91.309,-38.574,-22.949,-69.824,0
1664561513.155,-16.113,-28.320,-20.020,-36.133,0
1664561513.159,29.785,-33.203,-21.973,-28.320,0
1664561513.163,-40.527,-41.016,-22.949,-62.012,0
1664561513.167,-96.680,-35.645,-27.344,-80.078,0
1664561513.126,-39.551,-28.809,-27.832,-58.594,0
1664561513.130,27.344,-36.621,-21.973,-37.598,0
1664561513.134,-34.668,-41.504,-14.160,-59.082,0
1664561513.138,-102.539,-32.227,-9.766,-77.148,0
1664561513.142,-66.895,-30.762,-9.766,-59.570,0
1664561513.146,18.555,-34.668,-17.578,-35.645,0
1664561513.150,3.418,-40.039,-27.832,-43.457,0
1664561513.153,-80.566,-40.039,-31.250,-75.195,0
1664561513.157,-85.449,-37.598,-28.320,-78.613,0
1664561513.161,1.953,-36.133,-23.438,-43.945,0
1664561513.165,13.672,-34.180,-22.949,-33.203,0
1664561513.169,-69.336,-33.691,-14.648,-63.477,0
1664561513.169,-100.586,-31.738,-8.789,-75.195,0
1664561513.173,-27.344,-28.809,-20.020,-50.781,0
1664561513.177,32.715,-28.320,-20.996,-39.551,0
1664561513.181,-47.363,-33.203,-22.949,-67.383,0
1664561513.185,-113.281,-34.180,-31.250,-89.355,0
1664561513.189,-53.223,-32.227,-28.809,-68.848,0
1664561513.193,14.648,-34.180,-27.344,-51.758,0
1664561513.196,-34.668,-33.203,-26.855,-67.871,0
1664561513.200,-119.629,-36.621,-25.879,-86.426,0
1664561513.204,-98.145,-28.809,-27.344,-83.008,0
1664561513.208,-9.766,-23.926,-23.438,-55.664,0
1664561513.212,-20.508,-32.227,-27.832,-59.570,0
1664561513.214,-107.422,-35.645,-32.715,-86.914,0
1664561513.218,-107.910,-34.180,-22.461,-78.613,0
1664561513.222,-13.184,-30.762,-16.602,-48.340,0
1664561513.226,12.695,-26.367,-17.578,-42.480,0
1664561513.230,-62.012,-28.809,-14.160,-62.500,0
1664561513.234,-100.098,-23.438,-12.695,-71.289,0
1664561513.238,-26.855,-19.531,-22.461,-46.875,0
1664561513.241,38.574,-22.949,-22.949,-31.738,0
1664561513.245,-29.785,-29.785,-17.578,-62.988,0
1664561513.249,-88.867,-33.203,-21.973,-82.031,0
1664561513.253,-32.227,-27.344,-26.855,-61.523,0
1664561513.257,48.828,-26.367,-25.391,-34.180,0
1664561513.289,4.395,-24.414,-29.297,-56.152,0
1664561513.293,-81.055,-27.344,-31.250,-78.613,0
1664561513.297,-69.336,-30.273,-24.902,-60.547,0
1664561513.301,17.090,-30.273,-26.367,-36.133,0
1664561513.305,20.020,-23.926,-26.855,-40.527,0
1664561513.309,-69.824,-20.508,-21.484,-68.848,0
1664561513.313,-95.703,-25.391,-25.879,-66.895,0
1664561513.316,-18.555,-36.621,-35.645,-44.434,0
1664561513.320,21.484,-36.621,-34.180,-37.109,0
1664561513.324,-55.176,-34.668,-26.367,-55.664,0
1664561513.328,-103.516,-35.156,-27.832,-70.312,0
1664561513.332,-27.344,-27.344,-31.738,-51.758,0
1664561513.304,48.340,-26.855,-32.227,-27.832,0
1664561513.308,-15.137,-26.367,-23.438,-46.387,0
1664561513.312,-89.844,-22.949,-20.508,-70.801,0
1664561513.316,-47.852,-20.508,-23.438,-55.664,0
1664561513.320,41.992,-20.508,-25.879,-26.855,0
1664561513.324,18.555,-19.043,-17.578,-32.227,0
1664561513.328,-73.730,-24.902,-14.160,-59.570,0
1664561513.331,-75.195,-27.832,-29.785,-64.453,0
1664561513.335,16.602,-17.578,-23.438,-33.203,0
1664561513.339,27.832,-21.973,-12.207,-25.391,0
1664561513.343,-61.523,-26.367,-23.438,-54.688,0
1664561513.347,-95.215,-18.066,-29.297,-63.965,0
1664561513.363,-18.555,-23.926,-22.949,-39.062,0
1664561513.367,36.621,-22.461,-12.207,-21.973,0
1664561513.371,-36.133,-18.066,-12.695,-41.016,0
1664561513.375,-102.539,-24.414,-18.555,-62.988,0
1664561513.379,-53.711,-24.414,-24.414,-51.758,0
1664561513.383,25.879,-15.625,-30.762,-19.531,0
1664561513.387,-18.555,-22.949,-30.273,-38.574,0
1664561513.390,-97.656,-33.203,-28.320,-72.266,0
1664561513.394,-67.871,-22.461,-24.902,-57.617,0
1664561513.398,25.879,-13.184,-27.344,-26.855,0
1664561513.402,15.137,-9.766,-37.598,-36.621,0
1664561513.406,-68.359,-19.043,-39.551,-64.453,0
1664561513.408,-83.984,-36.621,-40.527,-65.430,0
1664561513.412,5.859,-24.902,-37.598,-35.156,0
1664561513.416,42.969,-5.371,-27.832,-20.996,0
1664561513.420,-42.969,-9.766,-23.926,-52.246,0
1664561513.424,-84.961,-21.484,-29.785,-70.312,0
1664561513.428,-16.113,-14.160,-33.691,-43.457,0
1664561513.432,41.504,-12.695,-39.062,-28.809,0
1664561513.435,-26.367,-24.414,-41.504,-57.617,0
1664561513.439,-90.332,-25.391,-38.574,-74.219,0
1664561513.443,-36.133,-23.926,-41.016,-56.641,0
1664561513.447,49.805,-24.902,-43.945,-38.086,0
1664561513.451,15.625,-15.137,-28.809,-42.480,0
1664561513.453,-71.777,-16.602,-21.484,-66.406,0
1664561513.457,-60.547,-20.996,-32.227,-64.941,0
1664561513.461,29.785,-17.090,-38.086,-32.227,0
1664561513.465,20.020,-18.555,-30.762,-33.203,0
1664561513.469,-70.312,-18.555,-31.738,-62.988,0
1664561513.473,-81.543,-16.602,-37.598,-65.430,0
1664561513.477,2.930,-22.949,-32.227,-35.156,0
1664561513.480,31.250,-19.043,-35.156,-21.484,0
1664561513.484,-43.457,-11.719,-33.203,-48.340,0
1664561513.488,-90.820,-19.531,-30.273,-64.941,0
1664561513.492,-26.855,-24.414,-29.785,-36.621,0
1664561513.496,33.203,-22.461,-31.250,-22.949,0
1664561513.498,-32.715,-26.367,-34.668,-50.781,0
1664561513.502,-92.773,-33.203,-34.180,-62.988,0
1664561513.506,-47.363,-29.297,-37.109,-48.340,0
1664561513.510,32.227,-26.855,-41.016,-29.785,0
1664561513.514,-2.441,-26.367,-33.691,-38.574,0
1664561513.518,-93.750,-27.344,-36.621,-67.383,0
1664561513.522,-78.613,-21.484,-44.434,-64.453,0
1664561513.525,19.043,-18.066,-37.598,-30.762,0
1664561513.529,22.949,-18.066,-25.879,-31.250,0
1664561513.533,-67.871,-15.137,-25.879,-68.359,0
1664561513.537,-90.332,-17.090,-26.855,-75.195,0
1664561513.541,-2.441,-24.902,-32.715,-48.340,0
1664561513.558,35.156,-27.832,-34.668,-37.598,0
1664561513.562,-45.410,-28.320,-31.250,-61.035,0
1664561513.566,-91.309,-23.438,-32.715,-70.801,0
1664561513.570,-22.461,-19.531,-36.621,-44.922,0
1664561513.574,40.039,-19.531,-30.273,-20.508,0
1664561513.578,-26.367,-13.672,-28.809,-36.133,0
1664561513.582,-98.145,-20.508,-28.809,-62.012,0
1664561513.585,-61.523,-32.715,-21.973,-49.316,0
1664561513.589,22.949,-25.391,-22.461,-20.020,0
1664561513.593,-2.930,-19.043,-25.879,-34.180,0
1664561513.597,-88.867,-29.297,-28.809,-65.918,0
1664561513.601,-87.402,-33.691,-23.926,-64.453,0
1664561513.589,0.488,-28.320,-17.090,-29.297,0
1664561513.593,20.020,-24.414,-18.066,-18.066,0
1664561513.597,-66.406,-31.250,-20.020,-47.852,0
1664561513.601,-100.586,-25.391,-29.785,-63.477,0
1664561513.605,-20.996,-17.578,-30.273,-35.645,0
1664561513.609,31.738,-12.207,-14.648,-13.672,0
1664561513.613,-34.180,-7.324,-19.531,-39.551,0
1664561513.616,-99.121,-18.066,-33.691,-69.336,0
1664561513.620,-45.898,-24.902,-29.785,-51.758,0
1664561513.624,37.109,-23.926,-24.414,-25.879,0
1664561513.628,-13.672,-27.832,-19.531,-39.062,0
1664561513.632,-100.586,-31.738,-23.438,-63.477,0
1664561513.633,-75.195,-26.367,-27.344,-60.059,0
1664561513.637,18.555,-15.137,-22.461,-32.227,0
1664561513.641,0.488,-13.184,-24.902,-41.992,0
1664561513.645,-83.496,-18.066,-17.578,-68.359,0
1664561513.649,-87.891,-19.043,-17.578,-71.289,0
1664561513.653,2.441,-14.648,-28.809,-36.133,0
1664561513.657,31.250,-23.926,-24.902,-18.555,0
1664561513.660,-61.523,-32.715,-25.391,-63.477,0
1664561513.664,-103.027,-32.715,-25.879,-78.613,0
1664561513.668,-20.508,-26.367,-19.043,-40.527,0
1664561513.672,38.086,-20.996,-23.438,-24.414,0
1664561513.676,-30.273,-26.855,-27.344,-52.246,0
1664561513.678,-92.285,-24.902,-26.855,-69.824,0
1664561513.682,-34.180,-15.625,-29.297,-48.340,0
1664561513.686,47.363,-20.508,-36.621,-24.902,0
1664561513.690,2.441,-32.715,-35.645,-36.133,0
1664561513.694,-91.797,-32.715,-35.645,-65.918,0
1664561513.698,-83.984,-30.762,-41.992,-66.406,0
1664561513.702,12.207,-31.738,-40.527,-35.645,0
1664561513.705,-3.418,-32.715,-37.598,-43.457,0
1664561513.709,-105.469,-30.762,-31.250,-68.848,0
1664561513.713,-113.281,-20.020,-29.297,-64.941,0
1664561513.717,-15.625,-16.113,-32.227,-40.039,0
1664561513.721,22.949,-24.414,-32.227,-30.762,0
1664561513.739,-60.059,-21.973,-31.250,-54.199,0
1664561513.743,-105.957,-13.184,-37.109,-70.801,0
1664561513.747,-37.109,-20.508,-45.898,-46.875,0
1664561513.751,27.344,-22.949,-45.410,-32.227,0
1664561513.755,-23.926,-19.531,-37.109,-42.969,0
1664561513.759,-97.656,-20.508,-39.062,-56.641,0
1664561513.763,-59.082,-13.672,-33.691,-45.410,0
1664561513.766,34.668,-11.719,-32.227,-20.020,0
1664561513.770,2.930,-22.461,-34.668,-37.598,0
1664561513.774,-87.891,-27.344,-29.785,-67.383,0
1664561513.778,-75.684,-20.508,-31.738,-63.965,0
1664561513.782,18.066,-17.090,-27.832,-32.227,0
1664561513.785,18.555,-18.555,-16.602,-32.715,0
1664561513.789,-76.660,-27.344,-15.137,-71.289,0
1664561513.793,-100.586,-24.902,-18.555,-77.637,0
1664561513.797,-15.625,-20.508,-15.625,-42.480,0
1664561513.801,25.879,-13.184,-12.695,-29.785,0
1664561513.805,-59.570,-17.578,-20.996,-61.035,0
1664561513.809,-119.141,-36.621,-25.879,-75.684,0
1664561513.812,-63.477,-39.551,-15.625,-60.547,0
1664561513.816,16.113,-30.273,-21.484,-35.156,0
1664561513.820,-31.738,-26.367,-31.250,-41.016,0
1664561513.824,-113.281,-36.621,-24.902,-69.336,0
1664561513.828,-79.102,-35.645,-26.855,-65.918,0
1664561513.843,18.555,-21.484,-27.832,-36.133,0
1664561513.847,19.531,-16.602,-33.203,-36.621,0
1664561513.851,-63.965,-29.785,-36.621,-62.988,0
1664561513.855,-87.402,-37.109,-20.996,-73.242,0
1664561513.859,-3.418,-34.668,-14.160,-42.969,0
1664561513.863,6.836,-37.598,-16.113,-41.016,0
1664561513.867,-85.938,-33.691,-11.719,-76.660,0
1664561513.870,-109.863,-26.855,-6.836,-72.754,0
1664561513.874,-35.645,-28.320,-9.277,-40.039,0
1664561513.878,13.672,-34.180,-10.742,-28.809,0
1664561513.882,-58.105,-37.598,-8.301,-52.246,0
1664561513.886,-120.605,-33.691,-14.648,-64.453,0
1664561513.873,-65.430,-28.320,-14.648,-42.480,0
1664561513.877,1.953,-35.645,-14.160,-26.367,0
1664561513.881,-36.133,-33.203,-8.789,-40.527,0
1664561513.885,-104.492,-26.855,-1.465,-55.664,0
1664561513.889,-75.195,-31.250,-5.859,-43.945,0
1664561513.893,24.414,-24.902,-13.672,-15.625,0
1664561513.897,11.719,-14.160,-10.254,-14.648,0
1664561513.900,-77.637,-10.254,-7.324,-37.598,0
1664561513.904,-76.660,-16.113,-16.602,-40.039,0
1664561513.908,17.578,-21.484,-16.602,-13.672,0
1664561513.912,40.039,-24.902,-11.719,1.953,0
1664561513.916,-45.410,-25.879,-17.578,-23.438,0
1664561513.919,-85.449,-26.367,-21.973,-43.945,0
1664561513.923,-15.137,-30.762,-17.578,-24.414,0
1664561513.927,36.621,-35.156,-14.648,-11.230,0
1664561513.931,-40.527,-36.621,-20.508,-34.668,0
1664561513.935,-102.539,-28.809,-20.508,-55.176,0
1664561513.939,-53.223,-28.320,-19.043,-40.039,0
1664561513.943,25.391,-26.855,-19.531,-20.020,0
1664561513.946,-12.207,-20.996,-20.996,-30.273,0
1664561513.950,-108.887,-30.762,-21.484,-59.082,0
1664561513.954,-95.215,-42.480,-15.625,-53.711,0
1664561513.958,7.324,-48.828,-13.184,-19.531,0
1664561513.962,-0.977,-41.992,-27.344,-27.344,0
1664561513.964,-91.797,-28.809,-38.574,-53.711,0
1664561513.968,-91.797,-35.156,-25.879,-44.434,0
1664561513.972,0.488,-39.551,-23.926,-15.137,0
1664561513.976,32.227,-22.949,-22.461,-7.324,0
1664561513.980,-44.922,-19.043,-14.160,-32.227,0
1664561513.984,-100.586,-26.855,-19.043,-55.176,0
1664561513.988,-41.504,-24.414,-22.949,-38.086,0
1664561513.991,20.020,-25.879,-24.414,-17.090,0
1664561513.995,-39.551,-22.949,-28.320,-44.434,0
1664561513.999,-103.027,-25.879,-19.043,-71.289,0
1664561514.003,-66.895,-26.855,-10.254,-52.734,0
1664561514.007,15.137,-25.879,-14.648,-23.438,0
1664561514.009,-9.766,-29.785,-20.996,-33.691,0
1664561514.013,-94.727,-31.250,-21.973,-60.547,0
1664561514.017,-82.031,-26.855,-16.602,-47.852,0
1664561514.021,14.648,-12.207,-14.160,-16.113,0
1664561514.025,32.227,-13.672,-25.879,-17.090,0
1664561514.029,-55.664,-25.879,-24.902,-41.992,0
1664561514.033,-102.051,-27.344,-9.766,-53.223,0
1664561514.036,-24.902,-32.227,-15.625,-37.598,0
1664561514.040,29.785,-31.738,-20.996,-16.113,0
1664561514.044,-41.504,-28.320,-7.812,-28.320,0
1664561514.048,-93.262,-33.203,-2.930,-42.969,0
1664561514.052,-34.668,-35.156,-11.230,-25.391,0
1664561514.053,37.109,-33.203,-12.695,-5.371,0
1664561514.057,-7.812,-21.484,-10.742,-19.043,0
1664561514.061,-84.473,-23.438,-12.207,-46.875,0
1664561514.065,-57.617,-36.621,-10.742,-34.668,0
1664561514.069,41.016,-33.203,-1.953,4.883,0
1664561514.073,14.160,-30.273,-2.930,-7.812,0
1664561514.077,-81.543,-26.367,-14.160,-40.039,0
1664561514.080,-76.172,-22.461,-12.695,-35.645,0
1664561514.084,12.207,-21.973,-9.277,-3.418,0
1664561514.088,25.879,-20.508,-6.836,2.441,0
1664561514.092,-64.941,-26.367,-8.789,-35.645,0
1664561514.096,-87.891,-21.973,-11.719,-50.293,0
1664561514.113,-1.953,-19.531,-13.184,-20.020,0
1664561514.117,38.574,-23.438,-14.648,-3.418,0
1664561514.121,-36.133,-17.090,-13.672,-29.297,0
1664561514.125,-92.285,-17.090,-13.184,-54.199,0
1664561514.129,-38.086,-27.832,-11.230,-36.621,0
1664561514.133,35.645,-28.809,-14.160,-9.277,0
1664561514.137,-10.254,-28.320,-22.461,-28.320,0
1664561514.140,-89.844,-27.344,-21.973,-58.594,0
1664561514.144,-62.988,-23.438,-20.996,-46.875,0
1664561514.148,30.273,-21.484,-24.902,-6.836,0
1664561514.152,12.695,-22.461,-26.855,-10.254,0
1664561514.156,-74.707,-21.973,-23.926,-45.898,0
1664561514.158,-79.102,-25.391,-20.508,-45.410,0
1664561514.162,3.906,-36.133,-24.902,-13.184,0
1664561514.166,31.738,-23.438,-26.855,-6.836,0
1664561514.170,-53.223,-14.160,-21.484,-35.645,0
1664561514.174,-93.750,-19.531,-20.020,-50.781,0
1664561514.178,-20.020,-22.949,-20.508,-29.785,0
1664561514.182,33.203,-21.973,-26.855,-12.695,0
1664561514.185,-35.156,-17.090,-27.832,-34.180,0
1664561514.189,-101.562,-20.996,-21.484,-56.152,0
1664561514.193,-55.176,-23.926,-25.879,-39.551,0
1664561514.197,26.367,-22.461,-28.809,-20.508,0
1664561514.201,-15.625,-22.949,-28.320,-38.086,0
1664561514.218,-97.656,-18.555,-25.879,-63.477,0
1664561514.222,-77.637,-18.066,-25.391,-52.734,0
1664561514.226,17.578,-21.973,-27.832,-24.414,0
1664561514.230,15.137,-25.391,-27.344,-28.809,0
1664561514.234,-75.684,-24.414,-27.832,-54.688,0
1664561514.238,-82.031,-15.137,-19.531,-53.711,0
1664561514.242,-8.789,-20.508,-16.602,-30.762,0
1664561514.245,15.625,-25.879,-25.391,-24.902,0
1664561514.249,-57.617,-23.926,-23.926,-50.781,0
1664561514.253,-103.027,-22.461,-24.414,-64.453,0
1664561514.257,-37.109,-16.602,-33.203,-34.668,0
1664561514.261,31.250,-13.184,-29.297,-15.137,0
1664561514.249,-24.414,-16.602,-18.066,-31.250,0
1664561514.253,-96.680,-16.602,-23.438,-57.617,0
1664561514.257,-60.547,-22.461,-26.855,-51.270,0
1664561514.261,28.320,-28.320,-22.461,-20.508,0
1664561514.265,-10.254,-24.414,-30.273,-35.645,0
1664561514.269,-101.562,-27.832,-35.645,-70.312,0
1664561514.273,-83.008,-23.438,-36.133,-66.895,0
1664561514.276,10.742,-10.254,-36.621,-26.367,0
1664561514.280,11.230,-23.438,-32.715,-22.461,0
1664561514.284,-67.871,-32.227,-25.391,-53.711,0
1664561514.288,-87.402,-32.715,-26.367,-61.523,0
1664561514.292,-5.371,-24.414,-24.902,-25.391,0
1664561514.293,30.762,-22.949,-26.367,-17.090,0
1664561514.297,-53.223,-27.344,-28.809,-52.734,0
1664561514.301,-102.051,-22.461,-26.855,-65.918,0
1664561514.305,-46.875,-28.320,-34.180,-48.828,0
1664561514.309,23.438,-32.227,-36.621,-26.367,0
1664561514.313,-24.414,-28.320,-27.832,-41.016,0
1664561514.317,-100.098,-28.320,-26.367,-71.289,0
1664561514.320,-67.871,-32.715,-31.738,-55.176,0
1664561514.324,15.625,-34.668,-41.992,-30.273,0
1664561514.328,-6.836,-28.809,-47.852,-43.457,0
1664561514.332,-98.633,-26.367,-41.992,-70.312,0
1664561514.336,-95.703,-28.809,-35.156,-67.871,0
1664561514.338,-3.906,-26.367,-31.738,-32.715,0
1664561514.342,7.812,-28.809,-34.668,-29.785,0
1664561514.346,-72.266,-30.273,-37.598,-57.129,0
1664561514.350,-103.516,-26.367,-35.156,-68.848,0
1664561514.354,-24.902,-26.367,-34.668,-47.363,0
1664561514.358,35.156,-22.949,-36.133,-27.832,0
1664561514.362,-44.922,-16.113,-36.621,-52.734,0
1664561514.365,-115.234,-18.066,-37.109,-73.730,0
1664561514.369,-60.059,-19.531,-41.504,-55.176,0
1664561514.373,12.207,-24.902,-37.598,-32.715,0
1664561514.377,-25.879,-30.762,-30.273,-46.875,0
1664561514.381,-99.609,-32.227,-33.203,-71.289,0
1664561514.383,-77.148,-32.715,-38.086,-66.895,0
1664561514.387,17.090,-31.250,-36.621,-33.691,0
1664561514.391,5.859,-28.320,-33.691,-32.715,0
1664561514.395,-83.984,-25.391,-27.832,-62.988,0
1664561514.399,-89.355,-24.902,-33.691,-64.941,0
1664561514.403,-3.906,-30.762,-41.016,-37.598,0
1664561514.407,17.578,-29.785,-41.016,-28.809,0
1664561514.410,-64.453,-22.949,-37.598,-55.664,0
1664561514.414,-114.258,-27.344,-44.922,-75.195,0
1664561514.418,-41.992,-31.250,-45.898,-51.758,0
1664561514.422,24.902,-26.367,-35.156,-27.832,0
1664561514.426,-39.551,-13.184,-33.203,-49.316,0
1664561514.428,-100.586,-10.254,-31.738,-72.266,0
1664561514.432,-55.176,-28.320,-30.762,-52.734,0
1664561514.436,14.648,-32.227,-33.203,-26.367,0
1664561514.440,-14.648,-29.785,-34.668,-39.551,0
1664561514.444,-86.914,-24.414,-35.156,-64.941,0
1664561514.448,-66.895,-16.113,-30.762,-54.199,0
1664561514.452,21.484,-22.949,-30.762,-28.320,0
1664561514.455,17.090,-23.926,-32.227,-41.016,0
1664561514.459,-66.406,-19.043,-26.855,-67.383,0
1664561514.463,-81.543,-20.996,-22.949,-69.824,0
1664561514.467,-8.789,-34.668,-35.645,-50.293,0
1664561514.471,19.043,-34.668,-38.574,-41.992,0
1664561514.503,-54.688,-26.855,-29.297,-58.105,0
1664561514.507,-102.539,-30.273,-29.785,-69.824,0
1664561514.511,-36.133,-28.320,-37.109,-52.246,0
1664561514.515,37.598,-23.438,-41.016,-30.762,0
1664561514.519,-25.879,-21.484,-30.273,-48.340,0
1664561514.523,-103.516,-21.484,-22.949,-70.801,0
1664561514.527,-65.918,-22.949,-31.250,-59.082,0
1664561514.530,20.996,-30.273,-40.527,-35.156,0
1664561514.534,-4.883,-34.180,-34.668,-40.039,0
1664561514.538,-88.867,-25.879,-37.109,-60.547,0
1664561514.542,-83.984,-24.414,-47.852,-63.477,0
1664561514.546,6.836,-26.855,-43.945,-35.645,0
1664561514.534,19.531,-22.949,-29.785,-31.250,0
1664561514.538,-73.242,-22.461,-23.926,-58.594,0
1664561514.542,-98.145,-20.996,-32.715,-68.848,0
1664561514.546,-9.766,-22.461,-38.086,-39.551,0
1664561514.550,39.062,-19.043,-32.715,-12.695,0
1664561514.554,-41.016,-19.043,-29.297,-39.062,0
1664561514.558,-100.098,-20.508,-20.508,-59.082,0
1664561514.561,-38.574,-16.113,-15.625,-41.016,0
1664561514.565,33.691,-18.555,-19.043,-16.602,0
1664561514.569,-14.648,-24.414,-22.949,-27.344,0
1664561514.573,-82.520,-29.785,-25.879,-56.641,0
1664561514.577,-48.828,-30.762,-28.320,-51.758,0
1664561514.578,39.551,-23.438,-25.391,-14.160,0
1664561514.582,20.508,-19.531,-18.555,-16.113,0
1664561514.586,-65.430,-24.414,-24.902,-54.688,0
1664561514.590,-67.383,-28.809,-31.250,-57.129,0
1664561514.594,15.137,-27.832,-29.297,-21.484,0
1664561514.598,21.973,-28.320,-27.832,-26.367,0
1664561514.602,-59.082,-22.461,-26.367,-63.477,0
1664561514.605,-86.914,-19.531,-31.250,-70.312,0
1664561514.609,-19.531,-25.879,-30.762,-35.156,0
1664561514.613,31.250,-24.414,-31.738,-19.043,0
1664561514.617,-32.227,-27.832,-35.156,-47.852,0
1664561514.621,-90.332,-32.227,-36.621,-62.500,0
1664561514.622,-44.434,-32.715,-33.203,-41.016,0
1664561514.626,24.414,-34.180,-33.691,-21.973,0
1664561514.630,-22.461,-27.344,-34.180,-40.039,0
1664561514.634,-101.562,-27.344,-38.086,-65.430,0
1664561514.638,-76.172,-38.086,-43.457,-55.664,0
1664561514.642,8.789,-37.598,-38.574,-20.508,0
1664561514.646,-3.418,-27.832,-31.738,-25.879,0
1664561514.649,-93.262,-33.203,-25.879,-48.340,0
1664561514.653,-111.328,-39.551,-23.926,-50.293,0
1664561514.657,-21.973,-37.598,-24.414,-31.250,0
1664561514.661,5.859,-31.738,-30.273,-25.391,0
1664561514.665,-77.148,-25.879,-37.109,-57.129,0
1664561514.667,-112.793,-31.250,-33.691,-72.266,0
1664561514.671,-47.363,-28.320,-32.227,-45.898,0
1664561514.675,13.184,-22.461,-29.297,-23.926,0
1664561514.679,-44.434,-22.949,-29.785,-47.852,0
1664561514.683,-110.840,-17.090,-27.344,-66.406,0
1664561514.687,-67.383,-14.648,-23.926,-44.434,0
1664561514.691,19.531,-9.766,-27.832,-16.113,0
1664561514.694,-17.578,-11.230,-27.832,-27.344,0
1664561514.698,-112.305,-21.973,-30.273,-69.824,0
1664561514.702,-96.680,-25.391,-28.809,-70.801,0
1664561514.706,3.906,-24.902,-29.785,-39.062,0
1664561514.710,4.395,-21.484,-29.297,-32.715,0
1664561514.712,-87.891,-18.555,-21.973,-56.641,0
1664561514.716,-99.121,-14.160,-19.531,-61.523,0
1664561514.720,-14.160,-12.207,-25.879,-34.668,0
1664561514.724,16.113,-16.602,-32.715,-19.043,0
1664561514.728,-66.895,-23.926,-35.645,-42.969,0
1664561514.732,-117.676,-33.691,-35.156,-67.383,0
1664561514.736,-58.105,-40.039,-32.715,-44.922,0
1664561514.739,7.812,-34.180,-32.227,-17.578,0
1664561514.743,-43.457,-24.414,-33.691,-41.016,0
1664561514.747,-106.934,-12.695,-31.738,-63.965,0
1664561514.751,-69.336,-15.625,-34.180,-43.945,0
1664561514.755,11.719,-24.902,-32.715,-15.137,0
1664561514.787,-14.160,-20.508,-32.227,-33.203,0
1664561514.791,-104.980,-25.879,-35.156,-72.266,0
1664561514.795,-102.539,-31.250,-25.879,-61.035,0
1664561514.799,-4.395,-24.414,-25.391,-29.785,0
1664561514.803,6.836,-20.508,-30.762,-33.691,0
1664561514.807,-88.379,-24.414,-27.832,-60.547,0
1664561514.811,-108.398,-31.738,-22.949,-60.547,0
1664561514.814,-18.555,-34.668,-23.438,-32.227,0
1664561514.818,21.973,-26.855,-24.414,-18.555,0
1664561514.822,-49.805,-19.043,-20.020,-37.109,0
1664561514.826,-102.051,-19.043,-22.461,-55.176,0
1664561514.830,-47.852,-22.949,-28.809,-42.480,0
1664561514.802,30.273,-29.297,-32.715,-19.531,0
1664561514.806,-14.648,-34.180,-27.832,-34.180,0
1664561514.810,-100.098,-31.738,-30.273,-64.941,0
1664561514.814,-72.754,-31.250,-28.809,-49.316,0
1664561514.818,24.414,-22.949,-21.484,-8.789,0
1664561514.822,1.953,-17.578,-18.066,-23.438,0
1664561514.826,-91.797,-26.855,-19.043,-55.664,0
1664561514.829,-94.238,-30.762,-19.043,-50.781,0
1664561514.833,-7.324,-29.785,-20.996,-28.320,0
1664561514.837,13.184,-28.320,-23.926,-22.949,0
1664561514.841,-73.730,-32.227,-30.273,-49.316,0
1664561514.845,-109.375,-39.062,-30.273,-61.035,0
1664561514.863,-32.715,-38.574,-25.879,-35.645,0
1664561514.867,23.438,-40.527,-36.621,-19.531,0
1664561514.871,-41.992,-35.645,-31.738,-44.434,0
1664561514.875,-92.773,-19.043,-22.461,-64.941,0
1664561514.879,-45.410,-21.484,-32.227,-43.945,0
1664561514.883,26.367,-27.832,-34.180,-11.230,0
1664561514.887,-16.602,-27.344,-24.902,-26.367,0
1664561514.890,-99.609,-30.762,-31.250,-57.617,0
1664561514.894,-81.543,-33.203,-37.109,-49.316,0
1664561514.898,12.207,-32.715,-30.273,-17.578,0
1664561514.902,6.348,-27.832,-28.809,-28.320,0
1664561514.906,-92.285,-29.297,-35.156,-69.336,0
1664561514.909,-107.422,-27.344,-41.016,-75.684,0
1664561514.913,-13.672,-24.414,-36.621,-41.016,0
1664561514.917,19.043,-23.926,-26.367,-25.879,0
1664561514.921,-72.754,-17.578,-28.320,-58.594,0
1664561514.925,-112.305,-17.578,-32.715,-71.777,0
1664561514.929,-47.363,-33.203,-42.969,-52.246,0
1664561514.933,4.883,-44.922,-49.316,-37.598,0
1664561514.936,-54.199,-40.527,-39.551,-59.082,0
1664561514.940,-115.234,-34.668,-32.227,-76.172,0
1664561514.944,-74.707,-28.809,-30.762,-54.199,0
1664561514.948,6.348,-24.414,-20.508,-28.320,0
1664561514.952,-26.855,-20.508,-19.531,-39.062,0
1664561514.969,-115.234,-25.391,-27.832,-59.082,0
1664561514.973,-97.656,-33.691,-32.227,-53.711,0
1664561514.977,-3.906,-34.668,-32.227,-24.414,0
1664561514.981,4.883,-23.438,-25.879,-15.625,0
1664561514.985,-69.336,-20.020,-26.855,-45.898,0
1664561514.989,-81.543,-25.879,-30.273,-58.594,0
1664561514.993,8.789,-28.320,-30.273,-30.762,0
1664561514.996,40.527,-29.785,-32.715,-21.484,0
1664561515.000,-36.621,-23.438,-32.715,-38.086,0
1664561515.004,-79.590,-27.344,-35.645,-47.852,0
1664561515.008,-16.602,-31.250,-34.180,-27.344,0
1664561515.012,54.688,-25.391,-27.832,-8.301,0
1664561514.998,-2.441,-22.461,-22.949,-26.367,0
1664561515.002,-72.266,-20.508,-25.391,-49.316,0
1664561515.006,-36.133,-19.043,-23.438,-41.992,0
1664561515.010,48.828,-26.855,-14.160,-15.137,0
1664561515.014,20.508,-31.738,-20.508,-30.273,0
1664561515.018,-79.590,-28.809,-27.832,-67.383,0
1664561515.022,-78.613,-29.785,-28.809,-63.477,0
1664561515.025,20.996,-35.156,-29.297,-29.297,0
1664561515.029,34.180,-31.738,-34.180,-30.762,0
1664561515.033,-60.547,-36.133,-44.922,-64.453,0
1664561515.037,-86.914,-41.504,-33.203,-63.965,0
1664561515.041,2.441,-34.668,-24.414,-33.203,0
1664561515.059,45.410,-33.203,-32.227,-26.855,0
1664561515.063,-25.879,-27.832,-26.367,-50.293,0
1664561515.067,-75.684,-22.949,-26.855,-68.359,0
1664561515.071,-20.020,-21.973,-30.762,-53.223,0
1664561515.075,54.688,-8.301,-23.438,-27.344,0
1664561515.079,-7.812,-13.184,-22.461,-46.387,0
1664561515.083,-99.609,-25.879,-24.902,-78.125,0
1664561515.086,-71.289,-23.438,-19.531,-57.129,0
1664561515.090,24.902,-20.508,-22.949,-23.926,0
1664561515.094,6.836,-19.043,-29.297,-38.086,0
1664561515.098,-92.773,-20.020,-29.297,-65.430,0
1664561515.102,-102.539,-29.297,-26.367,-67.383,0
1664561515.104,-11.719,-36.133,-22.461,-41.992,0
1664561515.108,12.207,-31.250,-31.738,-38.086,0
1664561515.112,-73.730,-31.250,-37.598,-69.824,0
1664561515.116,-106.445,-32.227,-34.180,-77.637,0
1664561515.120,-26.367,-28.809,-37.598,-52.246,0
1664561515.124,28.809,-27.832,-38.574,-35.156,0
1664561515.128,-33.691,-27.832,-33.691,-57.129,0
1664561515.131,-92.285,-28.809,-30.273,-73.730,0
1664561515.135,-41.016,-29.785,-35.645,-55.176,0
1664561515.139,39.062,-26.855,-31.738,-27.832,0
1664561515.143,-6.836,-31.250,-32.227,-41.504,0
1664561515.147,-86.914,-28.320,-37.109,-70.312,0
1664561515.149,-68.848,-26.367,-36.133,-67.871,0
1664561515.153,23.926,-29.297,-30.762,-33.203,0
1664561515.157,23.438,-27.832,-24.902,-35.156,0
1664561515.161,-75.684,-35.645,-24.902,-65.918,0
1664561515.165,-97.168,-36.621,-32.715,-66.895,0
1664561515.169,-4.395,-31.738,-39.551,-33.691,0
1664561515.173,26.367,-23.438,-35.645,-17.090,0
1664561515.176,-58.594,-18.066,-31.738,-44.434,0
1664561515.180,-95.703,-28.809,-35.156,-61.523,0
1664561515.184,-19.531,-36.133,-35.156,-36.133,0
1664561515.188,43.457,-38.574,-35.645,-9.766,0
1664561515.192,-19.043,-37.598,-44.434,-38.574,0
1664561515.194,-83.008,-26.855,-41.992,-66.895,0
1664561515.198,-43.945,-20.508,-37.598,-47.363,0
1664561515.202,37.598,-17.578,-38.086,-14.648,0
1664561515.206,9.277,-14.160,-32.227,-26.367,0
1664561515.210,-79.590,-20.020,-28.809,-63.477,0
1664561515.214,-74.219,-26.855,-33.203,-55.664,0
1664561515.218,7.812,-28.320,-40.527,-20.508,0
1664561515.221,5.371,-23.926,-39.551,-26.855,0
1664561515.225,-81.055,-22.949,-34.180,-57.617,0
1664561515.229,-101.562,-23.438,-28.809,-56.152,0
1664561515.233,-25.879,-21.484,-28.320,-24.902,0
1664561515.237,18.555,-21.973,-32.227,-17.578,0
1664561515.239,-56.152,-25.879,-30.762,-42.969,0
1664561515.243,-112.793,-29.785,-35.156,-53.223,0
1664561515.247,-49.316,-30.762,-44.922,-35.645,0
1664561515.251,24.414,-26.855,-41.992,-20.020,0
1664561515.255,-30.273,-30.273,-35.156,-33.691,0
1664561515.259,-108.398,-29.297,-34.668,-60.547,0
1664561515.263,-74.219,-24.902,-42.480,-57.129,0
1664561515.266,11.230,-24.902,-47.852,-34.180,0
1664561515.270,-12.207,-31.738,-45.410,-44.434,0
1664561515.274,-91.309,-28.809,-44.434,-57.617,0
1664561515.278,-91.309,-21.484,-50.293,-55.664,0
1664561515.282,-3.418,-17.090,-44.922,-31.738,0
1664561515.283,14.648,-9.766,-38.574,-20.996,0
1664561515.287,-71.777,-12.695,-38.086,-50.293,0
1664561515.291,-103.516,-18.555,-41.504,-59.570,0
1664561515.295,-31.738,-29.785,-46.387,-38.086,0
1664561515.299,10.254,-35.156,-41.504,-27.344,0
1664561515.303,-60.059,-28.320,-36.621,-48.828,0
1664561515.307,-113.281,-24.414,-38.574,-67.383,0
1664561515.310,-48.340,-23.926,-38.086,-49.316,0
1664561515.314,28.320,-23.926,-34.668,-13.184,0
1664561515.318,-28.809,-31.738,-40.039,-31.738,0
1664561515.322,-105.957,-39.551,-42.969,-74.219,0
1664561515.326,-76.660,-36.133,-38.086,-60.547,0
1664561515.328,10.254,-29.297,-30.273,-24.414,0
1664561515.332,1.953,-25.879,-30.273,-35.156,0
1664561515.336,-84.961,-27.344,-40.039,-68.848,0
1664561515.340,-95.703,-31.250,-47.852,-72.266,0
1664561515.344,-2.930,-32.227,-48.828,-43.457,0
1664561515.348,23.926,-26.367,-42.480,-40.527,0
1664561515.352,-69.336,-27.832,-39.551,-70.312,0
1664561515.355,-108.887,-26.367,-41.016,-81.055,0
1664561515.359,-32.227,-13.184,-40.039,-50.293,0
1664561515.363,20.020,-19.043,-41.016,-42.480,0
1664561515.367,-44.922,-28.809,-41.992,-70.801,0
1664561515.371,-102.539,-31.738,-40.527,-85.938,0
1664561515.374,-52.246,-31.738,-38.574,-66.406,0
1664561515.378,25.391,-24.902,-35.645,-35.156,0
1664561515.382,-17.578,-19.043,-28.809,-47.852,0
1664561515.386,-108.887,-16.602,-29.297,-75.684,0
1664561515.390,-93.262,-19.531,-34.668,-71.777,0
1664561515.394,3.906,-25.391,-33.203,-38.086,0
1664561515.398,-9.766,-33.203,-38.574,-39.062,0
1664561515.401,-102.539,-31.738,-34.180,-72.266,0
1664561515.405,-112.305,-21.973,-23.926,-70.312,0
1664561515.409,-26.367,-17.090,-21.973,-38.086,0
1664561515.413,4.883,-20.508,-26.855,-33.203,0
1664561515.417,-74.219,-23.926,-29.785,-60.547,0
1664561515.420,-117.676,-29.785,-23.926,-76.172,0
1664561515.424,-40.527,-31.738,-17.578,-51.758,0
1664561515.428,41.016,-18.066,-14.160,-23.438,0
1664561515.432,-19.531,-22.949,-20.996,-50.293,0
1664561515.436,-92.773,-29.785,-29.297,-79.102,0
1664561515.440,-48.828,-25.879,-29.785,-61.523,0
1664561515.444,34.180,-30.762,-27.832,-35.645,0
1664561515.447,1.953,-29.297,-32.227,-38.086,0
1664561515.451,-85.938,-25.879,-30.273,-64.453,0
1664561515.455,-83.008,-31.250,-29.297,-72.754,0
1664561515.459,12.207,-39.062,-32.227,-43.457,0
1664561515.463,24.902,-30.273,-29.297,-30.273,0
1664561515.465,-63.477,-19.531,-22.949,-54.688,0
1664561515.469,-90.332,-25.879,-28.809,-72.754,0
1664561515.473,-15.625,-29.785,-41.992,-48.828,0
1664561515.477,24.902,-35.645,-41.504,-36.621,0
1664561515.481,-49.805,-35.645,-37.109,-58.594,0
1664561515.485,-97.656,-38.086,-33.691,-67.383,0
1664561515.489,-40.039,-42.969,-31.250,-41.992,0
1664561515.492,31.250,-38.574,-29.297,-20.020,0
1664561515.496,-14.160,-24.414,-21.484,-42.969,0
1664561515.500,-93.262,-23.926,-20.996,-69.336,0
1664561515.504,-62.988,-22.461,-30.273,-59.570,0
1664561515.508,26.855,-12.207,-36.621,-28.320,0
1664561515.508,3.906,-35.645,-44.434,-41.504,0
1664561515.512,-80.566,-51.270,-46.387,-71.777,0
1664561515.516,-77.637,-38.574,-30.273,-65.430,0
1664561515.520,9.277,-36.621,-27.832,-39.062,0
1664561515.524,22.461,-43.945,-38.574,-37.598,0
1664561515.528,-60.547,-35.645,-33.691,-56.152,0
1664561515.532,-96.191,-27.344,-34.668,-60.547,0
1664561515.535,-22.461,-37.598,-39.551,-44.434,0
1664561515.539,30.273,-36.133,-33.203,-29.297,0
1664561515.543,-41.504,-20.996,-36.621,-45.410,0
1664561515.547,-103.516,-34.180,-39.551,-64.453,0
1664561515.551,-51.270,-46.387,-37.109,-43.945,0
1664561515.553,33.203,-41.504,-38.086,-15.137,0
1664561515.557,-13.184,-34.180,-35.156,-31.250,0
1664561515.561,-97.168,-32.227,-35.156,-61.035,0
1664561515.565,-72.754,-39.551,-37.598,-52.734,0
1664561515.569,14.648,-39.551,-34.180,-23.438,0
1664561515.573,6.348,-33.203,-31.250,-26.367,0
1664561515.577,-82.031,-35.645,-33.203,-58.105,0
1664561515.580,-95.215,-45.898,-38.086,-62.988,0
1664561515.584,0.000,-41.992,-29.297,-26.855,0
1664561515.588,38.086,-24.902,-18.555,-12.207,0
1664561515.592,-46.387,-18.555,-25.391,-41.504,0
1664561515.596,-98.145,-27.344,-41.504,-59.570,0
1664561515.614,-37.109,-38.086,-51.270,-36.621,0
1664561515.618,28.320,-29.297,-50.781,-18.066,0
1664561515.622,-35.156,-28.320,-44.922,-48.340,0
1664561515.626,-104.980,-36.621,-35.156,-67.383,0
1664561515.630,-55.176,-27.832,-31.738,-46.387,0
1664561515.634,28.809,-31.250,-36.133,-23.926,0
1664561515.638,-11.719,-44.922,-41.016,-36.621,0
1664561515.641,-93.262,-46.387,-42.969,-60.547,0
1664561515.645,-73.730,-39.062,-37.598,-54.688,0
1664561515.649,17.578,-35.645,-34.180,-26.855,0
1664561515.653,9.277,-36.133,-34.180,-33.691,0
1664561515.657,-85.938,-34.668,-36.133,-69.824,0
1664561515.674,-103.516,-31.250,-36.133,-71.289,0
1664561515.678,-19.531,-28.320,-39.551,-39.551,0
1664561515.682,16.602,-28.809,-40.527,-31.250,0
1664561515.686,-64.453,-33.203,-35.645,-64.941,0
1664561515.690,-110.352,-31.250,-34.180,-79.102,0
1664561515.694,-39.551,-26.367,-33.203,-48.340,0
1664561515.698,28.320,-32.715,-41.504,-24.902,0
1664561515.701,-31.738,-37.598,-43.945,-48.828,0
1664561515.705,-97.168,-31.738,-42.969,-73.242,0
1664561515.709,-55.664,-23.438,-44.434,-58.105,0
1664561515.713,39.551,-14.648,-39.551,-25.879,0
1664561515.717,18.066,-20.020,-43.457,-38.574,0
1664561515.706,-80.078,-31.738,-41.504,-63.477,0
1664561515.710,-76.660,-35.645,-41.992,-57.129,0
1664561515.714,19.043,-34.180,-47.363,-24.902,0
1664561515.718,27.344,-30.762,-48.828,-23.438,0
1664561515.722,-61.523,-32.227,-50.293,-50.293,0
1664561515.726,-83.984,-28.320,-41.016,-48.340,0
1664561515.730,2.441,-23.926,-35.156,-20.020,0
1664561515.733,44.922,-21.484,-42.969,-8.789,0
1664561515.737,-38.574,-22.461,-37.109,-38.574,0
1664561515.741,-100.098,-26.855,-34.668,-64.453,0
1664561515.745,-42.969,-38.086,-40.527,-48.828,0
1664561515.749,26.367,-39.551,-41.504,-25.879,0
1664561515.748,-22.949,-28.809,-40.039,-41.016,0
1664561515.752,-97.168,-17.578,-41.504,-72.754,0
1664561515.756,-63.477,-12.207,-34.180,-57.129,0
1664561515.760,20.508,-23.438,-31.738,-22.949,0
1664561515.764,-5.859,-31.250,-41.992,-34.668,0
1664561515.768,-86.426,-33.203,-46.875,-59.570,0
1664561515.772,-86.426,-25.391,-41.504,-54.688,0
1664561515.775,-0.977,-23.438,-38.086,-22.461,0
1664561515.779,16.113,-32.715,-41.992,-19.531,0
1664561515.783,-68.359,-31.250,-35.645,-57.129,0
1664561515.787,-98.145,-28.320,-31.738,-68.848,0
1664561515.791,-26.367,-28.320,-33.203,-39.062,0
1664561515.793,23.926,-29.785,-32.227,-20.508,0
1664561515.797,-41.016,-30.273,-26.367,-44.922,0
1664561515.801,-101.562,-31.250,-23.926,-65.918,0
1664561515.805,-48.340,-31.738,-36.133,-47.363,0
1664561515.809,32.715,-26.367,-34.668,-24.414,0
1664561515.813,-16.602,-24.414,-22.949,-41.504,0
1664561515.817,-99.121,-33.203,-23.438,-67.383,0
1664561515.820,-74.219,-38.086,-23.926,-52.246,0
1664561515.824,12.695,-35.645,-20.020,-17.578,0
1664561515.828,6.348,-36.133,-18.066,-24.902,0
1664561515.832,-83.984,-35.156,-21.973,-57.129,0
1664561515.836,-103.027,-30.762,-29.785,-62.012,0
1664561516.163,-17.090,-27.344,-34.180,-34.668,0
1664561516.167,20.996,-26.367,-36.133,-25.391,0
1664561516.171,-50.781,-26.855,-30.762,-50.293,0
1664561516.175,-96.191,-34.180,-29.785,-61.523,0
1664561516.179,-32.227,-39.551,-31.738,-39.062,0
1664561516.183,20.996,-37.109,-28.320,-22.461,0
1664561516.187,-39.551,-31.738,-29.297,-37.598,0
1664561516.190,-102.539,-27.832,-29.785,-56.152,0
1664561516.194,-54.688,-26.367,-27.832,-46.875,0
1664561516.198,32.227,-20.508,-32.227,-21.973,0
1664561516.202,-3.906,-16.113,-28.320,-29.785,0
1664561516.206,-95.215,-26.367,-28.809,-64.941,0
1664561516.208,36.133,-28.320,-33.203,-20.508,0
1664561516.212,-15.625,-28.809,-28.320,-33.691,0
1664561516.209,-93.262,-21.484,-24.902,-42.480,0
1664561516.213,-18.555,-21.973,-31.250,-26.855,0
1664561516.217,24.902,-31.738,-33.691,-23.438,0
1664561516.209,3.418,-37.598,-34.180,-28.320,0
1664561516.213,-81.543,-31.250,-24.414,-47.363,0
1664561516.217,-81.543,-29.785,-13.184,-43.457,0
1664561516.221,-0.977,-36.621,-20.996,-20.020,0
1664561516.208,-59.570,-40.039,-23.926,-36.621,0
1664561516.212,24.902,-35.645,-25.391,-7.324,0
1664561516.216,-22.949,-35.645,-26.855,-21.973,0
1664561516.220,-111.816,-34.180,-24.414,-53.711,0
1664561516.224,-83.984,-35.645,-20.020,-45.898,0
1664561516.208,-71.777,-45.898,-37.598,-46.875,0
1664561516.211,-116.699,-41.992,-35.645,-58.105,0
1664561516.215,-41.504,-34.668,-29.297,-32.715,0
1664561516.219,24.902,-24.902,-28.320,-10.254,0
1664561516.223,-37.109,-28.809,-15.137,-28.320,0
1664561516.227,-106.934,-44.434,-22.461,-51.270,0
1664561516.210,16.602,-15.137,-32.227,-3.418,0
1664561516.213,-70.312,-12.695,-31.738,-35.156,0
1664561516.217,-97.168,-21.484,-35.156,-41.504,0
1664561516.221,-8.301,-34.180,-42.969,-20.020,0
1664561516.225,29.297,-32.227,-35.156,-7.324,0
1664561516.229,-52.246,-29.785,-33.203,-28.320,0
1664561516.208,-63.965,-36.133,-36.621,-24.902,0
1664561516.212,16.602,-31.250,-42.969,-0.977,0
1664561516.215,-9.766,-34.180,-42.480,-8.301,0
1664561516.219,-87.891,-27.832,-27.344,-42.480,0
1664561516.223,-75.684,-23.438,-26.367,-37.598,0
1664561516.227,19.043,-34.180,-38.086,-9.766,0
1664561516.231,27.344,-27.344,-35.156,-4.395,0
1664561516.351,-69.824,-19.043,-34.180,-36.621,0
1664561516.355,-94.727,-27.832,-38.086,-51.270,0
1664561516.359,-16.113,-35.156,-32.715,-17.090,0
1664561516.363,26.855,-29.785,-30.762,0.977,0
1664561516.367,-47.852,-23.926,-31.250,-21.973,0
1664561516.371,-103.027,-20.020,-29.785,-36.621,0
1664561516.375,-42.480,-19.043,-31.250,-18.066,0
1664561516.378,37.598,-22.461,-25.879,5.859,0
1664561516.382,-13.672,-22.949,-23.926,-17.090,0
1664561516.386,-105.469,-30.762,-34.668,-55.176,0
1664561516.390,-83.984,-41.504,-41.504,-42.969,0
1664561516.394,10.742,-34.668,-38.574,-10.254,0
1664561516.352,1.465,-24.902,-31.250,-14.648,0
1664561516.356,-85.449,-30.273,-26.367,-40.039,0
1664561516.360,-88.379,-27.344,-30.762,-41.504,0
1664561516.364,-6.348,-24.902,-38.574,-20.508,0
1664561516.368,11.719,-29.297,-41.504,-22.461,0
1664561516.372,-68.848,-22.949,-37.598,-50.781,0
1664561516.376,-102.539,-19.043,-33.691,-51.758,0
1664561516.379,-30.273,-24.414,-33.203,-26.367,0
1664561516.383,18.555,-32.715,-38.086,-17.578,0
1664561516.387,-55.176,-41.504,-44.922,-41.016,0
1664561516.391,-114.746,-42.480,-35.645,-54.688,0
1664561516.395,-59.570,-43.945,-28.320,-37.598,0
1664561516.353,23.438,-34.180,-30.762,-7.812,0
1664561516.357,-16.113,-16.602,-33.203,-21.484,0
1664561516.361,-96.191,-21.973,-32.227,-49.316,0
1664561516.365,-77.637,-33.203,-29.297,-37.109,0
1664561516.369,10.254,-34.668,-25.391,-2.930,0
1664561516.373,-6.836,-38.574,-27.344,-8.301,0
1664561516.377,-99.609,-30.762,-30.273,-39.062,0
1664561516.380,-103.516,-21.973,-32.227,-42.480,0
1664561516.384,-12.207,-27.344,-33.203,-11.719,0
1664561516.388,18.555,-30.273,-31.738,-2.930,0
1664561516.392,-62.012,-24.414,-31.250,-31.738,0
1664561516.396,-112.793,-26.855,-31.250,-50.293,0
1664561516.374,-46.875,-30.273,-31.250,-36.133,0
1664561516.378,22.949,-28.320,-36.621,-17.578,0
1664561516.382,-42.969,-28.809,-40.039,-37.598,0
1664561516.386,-113.770,-35.156,-43.945,-62.500,0
1664561516.390,-67.383,-42.969,-48.828,-48.828,0
1664561516.394,18.066,-43.457,-50.293,-19.043,0
1664561516.398,-18.066,-34.668,-48.340,-30.273,0
1664561516.401,-104.004,-24.414,-36.621,-58.105,0
1664561516.405,-87.402,-31.250,-22.461,-49.805,0
1664561516.409,11.719,-27.344,-26.367,-10.254,0
1664561516.413,12.695,-27.344,-32.227,-9.766,0
1664561516.417,-80.078,-38.086,-30.762,-53.711,0
1664561516.438,-103.027,-37.598,-33.691,-58.594,0
1664561516.442,-22.949,-29.785,-38.086,-29.297,0
1664561516.446,22.949,-24.414,-41.504,-21.484,0
1664561516.450,-54.688,-20.996,-39.062,-41.016,0
1664561516.454,-104.492,-16.113,-32.227,-48.828,0
1664561516.458,-40.527,-13.184,-30.273,-27.832,0
1664561516.462,23.926,-11.719,-39.551,-6.836,0
1664561516.465,-25.391,-12.695,-39.062,-24.414,0
1664561516.469,-100.098,-19.531,-33.203,-49.805,0
1664561516.473,-69.824,-26.855,-42.480,-30.273,0
1664561516.477,20.996,-34.668,-48.340,-7.324,0
1664561516.481,-5.371,-40.039,-39.062,-30.762,0
1664561516.454,-94.727,-31.250,-33.203,-57.617,0
1664561516.458,-86.426,-23.926,-30.273,-51.758,0
1664561516.462,6.836,-21.973,-27.344,-13.672,0
1664561516.466,16.602,-25.391,-30.273,-5.859,0
1664561516.470,-77.148,-28.809,-38.574,-44.434,0
1664561516.474,-104.492,-38.574,-37.109,-60.059,0
1664561516.478,-20.508,-35.156,-25.391,-33.691,0
1664561516.481,33.691,-21.973,-17.578,-11.230,0
1664561516.485,-41.504,-17.578,-19.531,-34.668,0
1664561516.489,-103.027,-25.879,-26.855,-58.105,0
1664561516.493,-40.527,-30.762,-23.926,-31.738,0
1664561516.497,43.457,-23.438,-23.438,-0.488,0
1664561516.513,-10.254,-20.996,-25.391,-15.625,0
1664561516.517,-90.820,-20.996,-22.949,-40.039,0
1664561516.521,-57.129,-15.625,-27.344,-35.645,0
1664561516.525,26.855,-18.066,-30.273,-10.742,0
1664561516.529,-5.371,-21.973,-25.391,-16.113,0
1664561516.533,-88.379,-20.996,-21.973,-41.504,0
1664561516.537,-81.055,-16.113,-24.414,-40.527,0
1664561516.540,7.324,-14.160,-31.738,-12.695,0
1664561516.544,25.391,-32.227,-30.273,-9.766,0
1664561516.548,-66.895,-37.598,-29.297,-45.898,0
1664561516.552,-98.633,-28.320,-31.250,-53.711,0
1664561516.556,-23.438,-20.508,-32.227,-23.926,0
1664561516.544,34.180,-11.719,-25.391,-4.395,0
1664561516.548,-23.438,-17.090,-19.531,-32.227,0
1664561516.552,-86.914,-18.555,-20.996,-51.270,0
1664561516.556,-52.734,-28.320,-18.555,-35.156,0
1664561516.560,25.879,-34.180,-25.391,-15.137,0
1664561516.564,-14.648,-38.574,-37.598,-36.621,0
1664561516.568,-103.516,-41.992,-35.156,-68.359,0
1664561516.571,-86.426,-34.668,-28.809,-52.734,0
1664561516.575,2.930,-34.668,-27.344,-20.020,0
1664561516.579,-3.418,-34.180,-29.785,-23.926,0
1664561516.583,-100.098,-34.180,-28.809,-51.758,0
1664561516.587,-107.422,-31.738,-23.926,-41.504,0
1664561516.589,-11.719,-24.902,-25.879,-13.184,0
1664561516.593,18.066,-32.227,-34.180,-14.160,0
1664561516.597,-62.012,-35.645,-32.715,-41.992,0
1664561516.601,-106.934,-26.855,-29.297,-57.129,0
1664561516.605,-41.992,-25.391,-30.762,-39.551,0
1664561516.609,27.344,-19.043,-30.273,-24.414,0
1664561516.613,-32.227,-24.902,-30.762,-40.527,0
1664561516.616,-103.516,-32.715,-31.738,-58.594,0
1664561516.620,-61.523,-32.227,-29.297,-50.781,0
1664561516.624,28.320,-39.062,-29.785,-20.996,0
1664561516.628,-4.395,-42.480,-31.250,-27.832,0
1664561516.632,-99.121,-41.504,-32.227,-59.570,0
1664561516.649,-87.891,-36.133,-28.809,-55.664,0
1664561516.653,4.883,-37.598,-34.668,-23.438,0
1664561516.657,6.836,-32.227,-41.504,-22.949,0
1664561516.661,-79.102,-19.043,-39.062,-53.223,0
1664561516.665,-101.562,-24.414,-35.156,-56.152,0
1664561516.669,-20.020,-25.879,-32.715,-21.973,0
1664561516.673,24.902,-24.414,-35.156,-8.301,0
1664561516.676,-55.664,-27.344,-41.504,-46.387,0
1664561516.680,-113.281,-34.180,-34.668,-66.406,0
1664561516.684,-59.082,-37.598,-38.086,-38.574,0
1664561516.688,10.254,-28.320,-42.969,-6.348,0
1664561516.692,-33.203,-29.297,-35.645,-25.879,0
1664561516.693,-106.445,-37.598,-34.180,-62.988,0
1664561516.697,-72.266,-24.414,-36.621,-49.316,0
1664561516.701,16.602,-18.555,-37.109,-10.254,0
1664561516.705,-6.348,-23.926,-36.133,-22.461,0
1664561516.709,-95.215,-23.438,-38.574,-59.082,0
1664561516.713,-90.820,-25.391,-38.574,-57.129,0
1664561516.717,4.883,-23.438,-40.039,-22.461,0
1664561516.720,21.973,-23.438,-39.551,-19.531,0
1664561516.724,-67.871,-25.391,-28.809,-48.340,0
1664561516.728,-101.562,-28.320,-19.531,-52.246,0
1664561516.732,-22.461,-26.367,-20.020,-25.879,0
1664561516.736,26.367,-17.090,-28.320,-16.602,0
1664561516.739,-50.293,-22.949,-23.926,-41.016,0
1664561516.743,-105.957,-27.344,-18.066,-59.082,0
1664561516.747,-54.688,-27.344,-25.879,-39.062,0
1664561516.751,12.207,-34.668,-34.180,-11.230,0
1664561516.755,-37.109,-37.109,-34.180,-23.926,0
1664561516.759,-120.117,-33.691,-29.785,-50.781,0
1664561516.763,-96.191,-28.320,-27.832,-45.898,0
1664561516.766,4.883,-19.531,-29.785,-15.137,0
1664561516.770,-1.953,-17.578,-28.809,-19.531,0
1664561516.774,-91.797,-22.949,-28.809,-45.410,0
1664561516.778,-100.098,-26.855,-29.297,-49.805,0
1664561516.782,-10.254,-25.879,-25.391,-25.391,0
1664561516.783,17.578,-28.809,-25.879,-20.508,0
1664561516.787,-70.312,-31.250,-30.762,-46.875,0
1664561516.791,-107.910,-26.367,-29.785,-52.246,0
1664561516.795,-36.133,-26.367,-30.762,-32.715,0
1664561516.799,27.344,-20.020,-28.809,-13.184,0
1664561516.803,-32.715,-13.672,-24.414,-28.809,0
1664561516.807,-104.980,-15.625,-30.273,-48.828,0
1664561516.810,-54.688,-16.602,-36.133,-29.297,0
1664561516.814,34.180,-23.926,-31.250,9.766,0
1664561516.818,-7.812,-31.250,-34.668,-5.371,0
1664561516.822,-93.262,-29.297,-36.621,-49.316,0
1664561516.826,-70.312,-18.555,-30.762,-48.340,0
1664561516.829,6.836,-22.949,-32.227,-16.113,0
1664561516.833,-1.953,-29.297,-31.250,-15.625,0
1664561516.837,-88.379,-27.832,-31.250,-50.781,0
1664561516.841,-108.887,-31.738,-32.227,-52.734,0
1664561516.845,-25.391,-33.203,-39.551,-20.020,0
1664561516.849,9.277,-34.668,-38.574,-14.648,0
1664561516.853,-63.477,-26.367,-26.367,-45.898,0
1664561516.856,-109.375,-16.113,-26.367,-62.988,0
1664561516.860,-43.457,-30.762,-28.320,-30.273,0
1664561516.864,24.414,-27.832,-25.879,-8.301,0
1664561516.868,-41.016,-22.949,-26.367,-36.621,0
1664561516.872,-115.723,-34.668,-26.855,-53.223,0
1664561516.874,-76.660,-27.832,-24.902,-27.832,0
1664561516.878,24.414,-17.578,-20.996,10.742,0
1664561516.882,1.953,-21.973,-29.297,3.418,0
1664561516.886,-87.402,-27.344,-40.527,-26.855,0
1664561516.890,-76.172,-26.855,-44.922,-26.367,0
1664561516.894,11.230,-35.645,-46.387,5.859,0
1664561516.898,17.090,-41.016,-37.109,9.766,0
1664561516.901,-65.918,-35.645,-36.621,-23.926,0
1664561516.905,-95.215,-36.133,-42.969,-32.227,0
1664561516.909,-13.672,-38.086,-47.852,-11.719,0
1664561516.913,34.180,-28.809,-42.480,-0.977,0
1664561516.917,-41.992,-20.508,-33.691,-20.020,0
1664561516.919,-96.191,-14.648,-28.320,-39.551,0
1664561516.923,-35.156,-13.184,-27.344,-28.320,0
1664561516.927,30.273,-25.391,-27.344,-4.395,0
1664561516.931,-24.414,-27.832,-33.203,-22.461,0
1664561516.935,-89.844,-22.949,-29.297,-49.805,0
1664561516.939,-52.246,-21.973,-25.879,-27.832,0
1664561516.943,33.203,-17.578,-30.762,5.859,0
1664561516.946,9.277,-21.484,-28.320,0.488,0
1664561516.950,-73.242,-23.438,-28.320,-30.762,0
1664561516.954,-71.289,-31.250,-35.156,-36.621,0
1664561516.958,21.484,-30.273,-35.645,0.000,0
1664561516.962,42.480,-19.043,-29.297,8.789,0
1664561516.963,-48.340,-31.250,-29.785,-27.344,0
1664561516.967,-78.613,-28.320,-37.598,-34.668,0
1664561516.971,-1.953,-21.484,-32.227,-6.348,0
1664561516.975,43.945,-26.855,-31.250,6.348,0
1664561516.979,-26.367,-24.414,-28.320,-18.066,0
1664561516.983,-94.238,-31.250,-16.602,-42.480,0
1664561516.987,-48.828,-34.180,-24.902,-25.879,0
1664561516.990,23.926,-32.227,-34.668,0.488,0
1664561516.994,-28.320,-38.574,-31.250,-27.832,0
1664561516.998,-117.188,-46.387,-30.762,-66.406,0
1664561517.002,-95.215,-48.828,-34.668,-57.617,0
1664561517.006,4.883,-40.039,-37.109,-21.973,0
1664561517.010,1.953,-31.738,-34.180,-22.949,0
1664561517.014,-91.797,-28.809,-26.855,-56.152,0
1664561517.018,-113.281,-36.133,-25.879,-61.035,0
1664561517.022,-26.367,-44.434,-26.367,-30.273,0
1664561517.026,11.230,-36.621,-26.367,-26.367,0
1664561517.030,-69.336,-34.668,-32.227,-51.758,0
1664561517.034,-113.281,-43.945,-34.180,-60.059,0
1664561517.037,-36.133,-41.016,-28.320,-38.574,0
1664561517.041,40.527,-41.504,-26.367,-12.207,0
1664561517.045,-21.973,-44.922,-31.738,-31.250,0
1664561517.049,-96.680,-38.086,-33.203,-60.059,0
1664561517.053,-53.711,-31.250,-41.992,-45.410,0
1664561517.054,33.203,-27.832,-40.527,-6.836,0
1664561517.058,-2.930,-30.273,-37.109,-25.391,0
1664561517.062,-98.633,-39.551,-38.574,-55.176,0
1664561517.066,-80.566,-39.062,-34.180,-35.156,0
1664561517.070,16.602,-33.691,-37.109,-5.859,0
1664561517.074,13.184,-36.621,-38.086,-11.719,0
1664561517.078,-72.266,-34.180,-27.344,-35.645,0
1664561517.081,-90.820,-31.250,-27.832,-44.922,0
1664561517.085,0.488,-31.250,-35.645,-15.137,0
1664561517.089,35.645,-30.273,-38.086,-1.465,0
1664561517.093,-49.805,-28.320,-32.715,-29.297,0
1664561517.097,-97.656,-24.414,-27.344,-48.828,0
1664561517.129,-32.227,-25.391,-29.297,-29.297,0
1664561517.133,38.574,-25.879,-32.715,-1.953,0
1664561517.137,-21.973,-23.926,-33.691,-15.625,0
1664561517.141,-98.145,-23.926,-32.227,-40.527,0
1664561517.145,-55.664,-27.832,-31.738,-27.344,0
1664561517.149,31.250,-27.344,-29.297,8.789,0
1664561517.153,1.465,-21.973,-23.438,0.488,0
1664561517.156,-82.520,-19.531,-23.438,-37.109,0
1664561517.160,-75.684,-18.066,-27.832,-33.691,0
1664561517.164,19.531,-21.973,-26.855,10.742,0
1664561517.168,35.156,-30.762,-25.391,10.254,0
1664561517.172,-53.223,-27.344,-19.531,-23.438,0
1664561517.158,-86.426,-25.391,-21.484,-28.809,0
1664561517.162,-5.371,-29.785,-28.809,3.418,0
1664561517.166,44.434,-21.973,-34.180,18.555,0
1664561517.170,-25.391,-16.602,-35.156,-12.695,0
1664561517.174,-79.590,-20.996,-41.016,-33.203,0
1664561517.178,-16.602,-25.879,-41.992,-10.254,0
1664561517.182,70.312,-31.250,-37.109,19.531,0
1664561517.185,17.578,-30.762,-41.992,-0.977,0
1664561517.189,-71.289,-25.879,-44.922,-40.527,0
1664561517.193,-48.828,-28.320,-43.457,-24.902,0
1664561517.197,44.922,-28.320,-38.086,11.719,0
1664561517.201,20.508,-29.785,-35.645,-8.301,0
1664561517.218,-77.637,-31.250,-39.551,-41.016,0
1664561517.222,-81.543,-35.156,-35.645,-39.551,0
1664561517.226,13.184,-35.645,-32.715,-2.930,0
1664561517.230,38.086,-32.227,-39.551,4.883,0
1664561517.234,-43.945,-28.320,-39.062,-30.273,0
1664561517.238,-81.543,-31.250,-36.621,-40.039,0
1664561517.242,-10.254,-36.621,-36.621,-18.555,0
1664561517.245,46.875,-40.527,-35.645,-2.930,0
1664561517.249,-25.391,-34.180,-41.016,-29.785,0
1664561517.253,-89.844,-21.484,-44.434,-53.711,0
1664561517.257,-39.551,-23.438,-44.922,-31.738,0
1664561517.261,37.109,-30.273,-51.270,-3.906,0
1664561517.248,-4.395,-30.762,-46.387,-18.066,0
1664561517.252,-91.309,-37.109,-42.480,-58.594,0
1664561517.256,-72.754,-36.621,-46.387,-59.082,0
1664561517.260,25.391,-23.926,-35.645,-14.160,0
1664561517.264,12.695,-20.020,-31.738,-11.719,0
1664561517.268,-74.219,-20.020,-36.621,-48.340,0
1664561517.272,-82.520,-22.949,-38.574,-52.734,0
1664561517.275,4.395,-27.832,-40.527,-15.137,0
1664561517.279,32.715,-25.391,-41.016,-5.371,0
1664561517.283,-44.922,-20.508,-33.691,-40.039,0
1664561517.287,-85.449,-20.020,-25.879,-55.664,0
1664561517.291,-26.855,-25.391,-26.367,-23.926,0
1664561517.292,32.715,-35.156,-30.273,-0.977,0
1664561517.296,-30.273,-43.945,-37.109,-34.180,0
1664561517.300,-101.562,-42.480,-41.504,-60.547,0
1664561517.304,-59.570,-36.621,-38.574,-39.551,0
1664561517.308,30.762,-31.738,-37.598,-1.465,0
1664561517.312,-1.953,-24.902,-41.504,-13.672,0
1664561517.316,-85.938,-26.855,-44.434,-56.152,0
1664561517.319,-75.195,-39.062,-41.992,-42.969,0
1664561517.323,13.184,-42.969,-41.016,-6.348,0
1664561517.327,17.578,-42.969,-42.969,-19.043,0
1664561517.331,-75.195,-45.410,-48.340,-55.664,0
1664561517.335,-101.074,-41.504,-48.340,-59.570,0
1664561517.367,-19.531,-39.551,-45.410,-25.879,0
1664561517.371,26.855,-45.898,-41.016,-11.230,0
1664561517.375,-41.016,-41.504,-40.039,-37.109,0
1664561517.379,-97.168,-34.668,-41.992,-55.176,0
1664561517.383,-35.645,-33.203,-40.527,-27.832,0
1664561517.387,32.715,-42.480,-42.969,-8.789,0
1664561517.391,-25.879,-46.387,-44.434,-33.203,0
1664561517.394,-98.145,-42.480,-35.645,-56.152,0
1664561517.398,-64.941,-41.016,-37.109,-48.828,0
1664561517.402,28.809,-36.133,-46.387,-12.695,0
1664561517.406,4.883,-31.250,-44.434,-20.020,0
1664561517.410,-82.520,-30.762,-35.645,-55.176,0
1664561517.383,-83.984,-30.273,-41.992,-52.246,0
1664561517.387,4.883,-41.016,-45.898,-12.207,0
1664561517.391,22.949,-45.898,-43.945,-8.301,0
1664561517.395,-62.012,-34.668,-40.039,-40.039,0
1664561517.399,-93.750,-32.227,-34.668,-47.363,0
1664561517.403,-11.719,-27.832,-38.086,-10.254,0
1664561517.407,28.809,-24.902,-42.969,3.906,0
1664561517.410,-58.594,-29.785,-47.852,-31.250,0
1664561517.414,-122.070,-29.297,-48.828,-53.711,0
1664561517.418,-71.777,-28.809,-49.316,-27.344,0
1664561517.422,10.742,-30.273,-44.434,5.371,0
1664561517.426,-39.062,-30.762,-38.086,-23.926,0
1664561517.442,-125.977,-35.645,-36.621,-65.918,0
1664561517.446,-90.332,-41.992,-39.062,-49.316,0
1664561517.450,7.812,-46.387,-39.551,-9.766,0
1664561517.454,-12.695,-39.551,-41.016,-21.484,0
1664561517.458,-108.887,-45.410,-47.363,-66.406,0
1664561517.462,-117.188,-50.293,-50.781,-68.848,0
1664561517.466,-24.414,-46.875,-53.711,-20.508,0
1664561517.469,2.441,-45.898,-48.828,-16.602,0
1664561517.473,-82.520,-37.598,-45.410,-54.688,0
1664561517.477,-121.582,-38.574,-51.270,-65.918,0
1664561517.481,-42.969,-43.457,-51.270,-33.691,0
1664561517.485,13.184,-48.340,-59.082,-13.672,0
1664561517.488,-63.965,-48.340,-62.012,-42.969,0
1664561517.492,-126.465,-45.410,-44.922,-62.500,0
1664561517.496,-71.289,-44.434,-36.621,-37.598,0
1664561517.500,13.672,-45.410,-40.039,0.977,0
1664561517.504,-26.367,-39.062,-38.086,-9.277,0
1664561517.508,-114.746,-38.086,-33.691,-44.922,0
1664561517.512,-98.633,-50.781,-29.785,-35.156,0
1664561517.515,-1.953,-52.246,-31.738,-6.348,0
1664561517.519,0.488,-41.504,-37.109,-13.672,0
1664561517.523,-91.797,-33.691,-37.109,-42.969,90
1664561517.527,-114.258,-34.180,-41.016,-48.828,0
1664561517.531,-25.391,-39.062,-38.086,-12.695,0
1664561517.533,17.578,-39.062,-35.645,-2.441,0
1664561517.537,-58.594,-27.344,-41.504,-33.691,0
1664561517.541,-104.492,-23.438,-37.598,-48.828,0
1664561517.545,-33.691,-20.508,-31.250,-15.137,0
1664561517.549,37.598,-23.438,-26.855,16.602,0
1664561517.553,-27.344,-30.762,-29.785,-11.719,0
1664561517.557,-101.562,-28.809,-33.203,-33.691,0
1664561517.560,-59.570,-32.227,-37.598,-11.719,0
1664561517.564,24.902,-33.691,-36.621,20.508,0
1664561517.568,-3.906,-26.855,-32.715,3.906,0
1664561517.572,-86.426,-26.367,-31.250,-31.738,0
1664561517.576,-78.125,-24.414,-32.715,-34.180,0
1664561517.578,17.090,-31.250,-31.250,6.348,0
1664561517.582,24.902,-36.621,-30.273,14.160,0
1664561517.586,-71.289,-34.180,-35.645,-25.391,0
1664561517.590,-93.750,-32.227,-42.480,-31.738,0
1664561517.594,-8.789,-31.250,-41.016,-1.953,0
1664561517.598,33.691,-33.203,-34.180,9.277,0
1664561517.602,-45.410,-36.621,-30.762,-16.113,0
1664561517.605,-97.656,-36.133,-25.391,-31.738,0
1664561517.609,-28.809,-26.367,-21.973,-3.418,0
1664561517.613,50.293,-20.996,-31.250,22.949,0
1664561517.617,-4.395,-23.926,-21.484,0.488,0
1664561517.621,-90.820,-30.273,-16.113,-30.273,0
1664561517.623,-61.035,-33.691,-24.902,-18.555,0
1664561517.627,28.809,-36.133,-23.926,17.578,0
1664561517.631,2.930,-36.621,-24.902,4.395,0
1664561517.635,-85.938,-30.762,-31.250,-27.344,0
1664561517.639,-74.707,-26.855,-32.227,-16.113,0
1664561517.643,26.855,-22.949,-21.484,19.531,0
1664561517.647,48.340,-17.090,-14.648,18.066,0
1664561517.650,-44.434,-19.043,-21.973,-20.508,0
1664561517.654,-88.379,-19.043,-30.273,-31.738,0
1664561517.658,-7.812,-21.973,-31.738,-0.977,0
1664561517.662,45.410,-19.043,-27.344,19.531,0
1664561517.666,-33.691,-19.043,-28.809,-12.695,0
1664561517.668,-93.750,-24.414,-27.344,-35.645,0
1664561517.672,-34.668,-31.250,-27.344,-9.277,0
1664561517.676,43.457,-28.809,-29.297,25.391,0
1664561517.680,-0.977,-22.461,-22.949,5.371,0
1664561517.684,-82.031,-24.414,-26.855,-25.879,0
1664561517.688,-69.336,-31.250,-38.574,-17.578,0
1664561517.692,20.996,-35.156,-35.156,14.160,0
1664561517.695,13.184,-25.391,-28.320,16.602,0
1664561517.699,-88.867,-25.391,-34.668,-24.902,0
1664561517.703,-97.656,-29.297,-35.156,-30.762,0
1664561517.707,4.883,-26.367,-34.180,10.742,0
1664561517.711,31.250,-21.484,-35.645,12.207,0
1664561517.728,-62.988,-27.832,-28.320,-24.414,0
1664561517.732,-103.516,-35.156,-26.367,-34.180,0
1664561517.736,-30.273,-35.156,-36.133,-8.789,0
1664561517.740,29.297,-25.391,-38.574,11.719,0
1664561517.744,-34.668,-19.043,-32.715,-14.648,0
1664561517.748,-102.539,-20.996,-27.344,-36.133,0
1664561517.752,-54.199,-13.672,-19.043,-8.789,0
1664561517.755,35.156,-2.930,-20.020,22.461,0
1664561517.759,-10.742,-11.719,-20.508,-4.395,0
1664561517.763,-110.352,-23.926,-20.020,-40.039,0
1664561517.767,-96.191,-25.879,-25.391,-33.691,0
1664561517.771,0.977,-21.484,-23.926,-2.441,0
1664561517.758,-4.883,-27.832,-26.855,-13.184,0
1664561517.762,-110.840,-34.668,-30.273,-53.711,0
1664561517.766,-131.836,-30.762,-31.250,-56.152,0
1664561517.770,-38.086,-26.855,-34.180,-22.949,0
1664561517.774,11.719,-22.949,-29.297,-6.836,0
1664561517.778,-74.707,-19.043,-28.809,-33.691,0
1664561517.782,-134.766,-26.367,-40.039,-53.711,0
1664561517.785,-59.082,-21.973,-35.156,-22.461,0
1664561517.789,7.324,-18.066,-26.855,-5.859,0
1664561517.793,-62.012,-27.832,-30.762,-36.133,0
1664561517.797,-136.230,-29.785,-35.156,-56.152,0
1664561517.801,-101.562,-26.367,-35.156,-37.598,0
1664561517.804,-6.348,-23.438,-32.227,-7.812,0
1664561517.808,-35.156,-27.344,-35.156,-21.484,0
1664561517.812,-124.023,-24.414,-34.668,-45.898,0
1664561517.816,-105.469,-24.414,-34.180,-36.621,0
1664561517.820,5.859,-31.738,-31.250,-5.371,0
1664561517.824,24.414,-20.996,-29.785,2.441,0
1664561517.828,-77.148,-21.973,-34.668,-27.344,0
1664561517.831,-99.121,-33.203,-32.227,-36.621,0
1664561517.835,5.371,-20.996,-21.973,-3.906,0
1664561517.839,46.387,-17.578,-24.902,15.625,0
1664561517.843,-54.688,-22.949,-33.203,-17.090,0
1664561517.847,-119.141,-32.715,-29.785,-39.551,0
1664561517.863,-54.688,-39.062,-25.879,-8.301,0
1664561517.867,27.832,-33.691,-26.855,18.066,0
1664561517.871,-21.484,-27.832,-27.344,-7.812,0
1664561517.875,-107.910,-26.855,-30.273,-37.598,0
1664561517.879,-81.055,-31.250,-34.668,-22.461,0
1664561517.883,19.043,-31.738,-33.203,20.996,0
1664561517.887,-10.742,-36.133,-37.598,14.160,0
1664561517.890,-106.934,-37.598,-39.551,-26.367,0
1664561517.894,-104.492,-29.297,-37.109,-29.785,0
1664561517.898,-4.395,-27.344,-34.668,10.254,0
1664561517.902,15.137,-22.949,-31.738,10.742,0
1664561517.906,-85.449,-23.438,-27.832,-30.273,0
1664561517.908,-123.047,-26.367,-24.902,-37.598,0
1664561517.912,-39.551,-29.297,-28.320,-10.254,0
1664561517.916,14.160,-31.250,-30.762,1.465,0
1664561517.920,-74.219,-31.250,-36.133,-27.832,0
1664561517.924,-146.484,-25.879,-40.039,-49.316,0
1664561517.928,-94.727,-32.715,-33.203,-29.297,0
1664561517.932,-2.930,-39.551,-33.691,-6.836,0
1664561517.935,-49.316,-33.691,-35.645,-19.043,0
1664561517.939,-144.043,-31.250,-32.227,-35.156,0
1664561517.943,-113.770,-24.414,-26.367,-23.438,0
1664561517.947,-0.977,-19.531,-18.555,6.836,0
1664561517.951,-14.648,-28.320,-25.879,-4.395,0
1664561517.967,-128.906,-33.203,-32.715,-41.992,0
1664561517.971,-139.648,-31.738,-33.203,-43.457,0
1664561517.975,-35.156,-36.133,-35.645,-6.348,0
1664561517.979,-11.719,-40.527,-38.574,2.930,0
1664561517.983,-101.074,-28.320,-36.621,-26.855,0
1664561517.987,-138.672,-24.414,-32.227,-41.504,0
1664561517.991,-53.711,-29.785,-30.762,-12.695,0
1664561517.994,17.578,-26.367,-35.645,10.742,0
1664561517.998,-48.828,-29.785,-39.551,-10.742,0
1664561518.002,-115.723,-32.715,-35.645,-30.762,0
1664561518.006,-62.500,-28.809,-35.645,-15.137,0
1664561518.010,33.691,-28.809,-43.945,12.207,0
1664561517.997,-5.371,-29.785,-44.434,0.977,0
1664561518.001,-101.562,-28.809,-41.992,-31.250,0
1664561518.005,-85.938,-24.902,-41.504,-23.926,0
1664561518.009,21.973,-32.715,-41.016,7.812,0
1664561518.013,27.832,-35.156,-35.645,6.836,0
1664561518.017,-71.777,-30.273,-27.344,-18.066,0
1664561518.021,-87.891,-31.250,-24.414,-16.602,0
1664561518.024,5.371,-34.668,-37.109,7.812,0
1664561518.028,44.434,-32.227,-40.039,14.648,0
1664561518.032,-46.875,-31.250,-33.691,-18.066,0
1664561518.036,-100.586,-29.785,-39.062,-39.062,0
1664561518.040,-23.438,-23.438,-40.039,-8.301,0
1664561518.058,53.223,-30.273,-33.691,17.090,0
1664561518.062,-16.602,-33.203,-31.250,-5.859,0
1664561518.066,-100.098,-34.180,-26.367,-31.250,0
1664561518.070,-50.781,-37.109,-22.461,-19.043,0
1664561518.074,49.316,-29.785,-25.879,16.113,0
1664561518.078,1.953,-19.531,-27.832,9.277,0
1664561518.082,-95.703,-19.531,-28.320,-19.531,0
1664561518.085,-82.031,-20.508,-28.809,-12.207,0
1664561518.089,26.367,-19.043,-28.809,16.113,0
1664561518.093,35.645,-26.367,-31.738,9.277,0
1664561518.097,-71.777,-34.180,-29.785,-26.367,0
1664561518.101,-96.191,-26.367,-32.227,-41.016,0
1664561518.102,-17.090,-29.297,-39.551,-18.066,0
1664561518.106,26.367,-30.273,-44.434,-0.977,0
1664561518.110,-58.105,-20.996,-43.945,-28.320,0
1664561518.114,-122.559,-24.414,-41.016,-43.457,0
1664561518.118,-58.105,-36.621,-41.992,-26.367,0
1664561518.122,22.461,-37.109,-48.340,-10.742,0
1664561518.126,-32.227,-33.691,-46.875,-25.391,0
1664561518.129,-112.793,-32.715,-45.410,-47.852,0
1664561518.133,-80.078,-30.762,-56.152,-35.156,0
1664561518.137,20.508,-30.273,-57.129,-5.859,0
1664561518.141,-2.930,-29.785,-44.434,-9.766,0
1664561518.145,-106.445,-35.645,-43.945,-37.109,0
1664561518.132,-105.957,-36.621,-50.781,-48.340,0
1664561518.136,-2.441,-30.762,-48.340,-19.043,0
1664561518.140,29.785,-22.949,-51.758,-13.184,0
1664561518.144,-72.754,-25.391,-49.316,-42.969,0
1664561518.148,-118.164,-31.738,-41.016,-52.734,0
1664561518.152,-30.762,-36.133,-44.434,-28.320,0
1664561518.156,28.320,-37.109,-52.734,-4.883,0
1664561518.159,-49.316,-29.785,-51.758,-31.738,0
1664561518.163,-114.746,-28.809,-50.781,-46.875,0
1664561518.167,-47.363,-32.715,-48.828,-17.090,0
1664561518.171,48.828,-30.273,-42.969,4.883,0
1664561518.175,-7.812,-20.020,-34.668,-15.625,0
1664561518.178,-103.027,-24.414,-30.762,-40.527,0
1664561518.182,-80.566,-30.762,-34.180,-25.879,0
1664561518.186,19.043,-24.414,-28.809,13.184,0
1664561518.190,16.602,-26.367,-29.785,9.766,0
1664561518.194,-87.402,-32.227,-41.992,-28.809,0
1664561518.198,-103.516,-29.297,-49.316,-30.762,0
1664561518.202,-0.977,-29.297,-59.570,2.930,0
1664561518.205,39.062,-28.809,-54.688,5.371,0
1664561518.209,-54.199,-27.832,-42.480,-29.297,0
1664561518.213,-100.098,-27.832,-37.109,-38.574,0
1664561518.217,-11.719,-28.320,-29.785,-12.207,0
1664561518.221,58.594,-28.320,-32.715,-0.977,0
1664561518.238,-14.160,-21.973,-32.715,-21.973,0
1664561518.242,-92.773,-21.973,-24.902,-38.086,0
1664561518.246,-45.898,-26.855,-27.832,-10.254,0
1664561518.250,55.176,-28.809,-36.621,25.391,0
1664561518.254,22.461,-25.879,-34.180,18.066,0
1664561518.258,-77.148,-24.902,-26.367,0.000,0
1664561518.262,-65.430,-33.203,-26.367,0.488,0
1664561518.265,32.227,-39.062,-23.438,17.090,0
1664561518.269,28.809,-29.297,-29.297,18.066,0
1664561518.273,-73.242,-24.414,-33.691,-13.184,0
1664561518.277,-101.074,-35.156,-34.180,-32.227,0
1664561518.281,-2.930,-31.738,-36.133,-1.465,0
1664561518.283,42.480,-31.250,-32.715,16.602,0
1664561518.287,-43.945,-33.203,-34.180,-18.555,0
1664561518.291,-90.820,-22.949,-36.621,-28.320,0
1664561518.295,-35.645,-25.391,-37.598,-3.418,0
1664561518.299,35.156,-34.180,-33.203,8.789,0
1664561518.303,-21.484,-35.156,-26.367,-14.648,0
1664561518.307,-119.141,-38.574,-31.738,-35.645,0
1664561518.310,-81.543,-29.785,-34.180,-18.555,0
1664561518.314,26.367,-15.625,-33.203,12.695,0
1664561518.318,-6.348,-12.695,-30.762,7.812,0
1664561518.322,-114.746,-20.996,-33.203,-31.738,0
1664561518.326,-111.816,-18.555,-28.320,-33.203,0
1664561518.329,-8.789,-15.625,-20.996,2.441,0
1664561518.333,7.812,-16.602,-30.273,-2.930,0
1664561518.337,-91.797,-19.531,-27.832,-41.992,0
1664561518.341,-118.652,-27.832,-24.902,-43.457,0
1664561518.345,-21.973,-33.203,-35.156,-15.625,0
1664561518.349,29.297,-29.785,-41.992,-1.465,0
1664561518.353,-59.570,-27.832,-45.410,-25.391,0
1664561518.356,-128.906,-25.391,-48.828,-54.688,0
1664561518.360,-58.105,-20.996,-43.457,-32.227,0
1664561518.364,24.902,-21.973,-38.574,2.930,0
1664561518.368,-25.391,-20.020,-38.574,-19.043,0
1664561518.372,-105.469,-22.461,-36.133,-46.875,0
1664561518.373,-70.312,-24.902,-35.156,-18.555,0
1664561518.377,33.203,-22.461,-32.715,15.625,0
1664561518.381,9.766,-25.879,-38.086,1.953,0
1664561518.385,-87.402,-26.855,-42.480,-30.273,0
1664561518.389,-83.008,-26.855,-42.480,-34.180,0
1664561518.393,15.625,-29.297,-37.598,-9.766,0
1664561518.397,41.992,-24.414,-32.715,-9.766,0
1664561518.400,-56.641,-25.391,-32.715,-38.086,0
1664561518.404,-100.586,-18.555,-33.691,-41.016,0
1664561518.408,-21.484,-20.508,-38.574,-20.508,0
1664561518.412,34.668,-31.738,-34.180,-11.719,0
1664561518.416,-35.156,-30.273,-28.809,-32.227,0
1664561518.418,-93.262,-26.855,-27.344,-47.852,0
1664561518.422,-37.598,-21.973,-22.949,-23.438,0
1664561518.426,37.598,-23.926,-26.367,1.465,0
1664561518.430,-8.301,-27.344,-31.738,-14.648,0
1664561518.434,-95.215,-31.250,-39.551,-41.504,0
1664561518.438,-70.801,-28.809,-36.133,-31.738,0
1664561518.442,40.527,-21.973,-33.691,4.395,0
1664561518.445,41.016,-20.020,-37.109,4.395,0
1664561518.449,-62.500,-21.484,-35.645,-30.273,0
1664561518.453,-74.219,-29.785,-28.320,-40.039,0
1664561518.457,26.367,-33.691,-22.949,-9.277,0
1664561518.461,69.336,-26.367,-23.926,2.441,0
1664561518.463,-20.020,-26.855,-32.227,-32.715,0
1664561518.467,-73.730,-33.691,-32.227,-51.270,0
1664561518.471,-5.371,-34.668,-28.809,-21.973,0
1664561518.475,61.523,-34.668,-31.738,0.000,0
1664561518.479,-4.883,-26.367,-29.297,-24.414,0
1664561518.483,-98.145,-24.414,-22.949,-48.340,0
1664561518.487,-57.129,-25.391,-25.391,-26.367,0
1664561518.490,36.621,-34.180,-29.297,-3.418,0
1664561518.494,-4.395,-39.551,-26.855,-24.414,0
1664561518.498,-97.656,-27.832,-23.926,-47.852,0
1664561518.502,-84.961,-29.297,-33.203,-42.969,0
1664561518.506,20.508,-29.785,-41.504,-9.766,0
1664561518.523,32.227,-18.555,-38.086,-4.395,71
1664561518.527,-70.312,-23.438,-37.109,-36.133,0
1664561518.531,-99.121,-26.855,-37.109,-45.410,0
1664561518.535,-13.672,-23.438,-34.668,-17.578,0
1664561518.539,34.668,-27.832,-38.086,-1.465,0
1664561518.543,-47.363,-27.344,-41.992,-28.320,0
1664561518.547,-111.816,-24.902,-43.945,-40.039,0
1664561518.550,-48.340,-29.785,-54.688,-18.066,0
1664561518.554,36.133,-28.809,-49.316,0.000,0
1664561518.558,-21.973,-28.320,-33.203,-18.066,0
1664561518.562,-114.746,-28.320,-35.645,-42.480,0
1664561518.566,-80.566,-29.297,-37.109,-30.762,0
1664561518.553,20.996,-28.320,-27.832,1.953,0
1664561518.557,0.488,-18.555,-23.926,-3.418,0
1664561518.561,-100.586,-21.484,-31.250,-41.016,0
1664561518.565,-106.934,-21.484,-35.156,-48.828,0
1664561518.569,-4.395,-27.344,-29.297,-13.184,0
1664561518.573,11.230,-37.109,-20.996,-7.812,0
1664561518.577,-92.773,-37.598,-22.461,-41.504,0
1664561518.580,-130.371,-41.504,-25.391,-46.875,0
1664561518.584,-38.086,-35.645,-25.879,-13.672,0
1664561518.588,22.461,-31.738,-31.738,4.395,0
1664561518.592,-64.941,-37.109,-32.715,-23.926,0
1664561518.596,-129.883,-40.039,-31.738,-43.945,0
1664561518.613,-67.383,-44.434,-36.133,-20.996,0
1664561518.617,18.066,-37.598,-35.645,8.789,0
1664561518.621,-32.715,-32.715,-34.668,-11.230,0
1664561518.625,-124.512,-38.574,-34.668,-41.992,0
1664561518.629,-85.449,-42.969,-39.062,-28.320,0
1664561518.633,8.789,-44.434,-38.086,4.883,0
1664561518.637,-10.254,-37.598,-33.691,2.930,0
1664561518.640,-109.863,-30.762,-41.016,-30.762,0
1664561518.644,-117.676,-32.227,-39.062,-34.668,0
1664561518.648,-11.719,-33.203,-34.668,-3.418,0
1664561518.652,18.066,-36.133,-32.227,4.395,0
1664561518.656,-76.660,-43.457,-33.203,-26.855,0
1664561518.673,-116.211,-41.504,-37.598,-41.992,0
1664561518.677,-27.832,-30.273,-31.738,-17.578,0
1664561518.681,41.504,-28.809,-30.762,-1.465,0
1664561518.685,-23.926,-31.250,-30.273,-31.250,0
1664561518.689,-90.332,-32.227,-28.809,-48.828,0
1664561518.693,-39.062,-35.156,-27.344,-32.715,0
1664561518.697,47.363,-38.574,-28.809,-13.672,0
1664561518.700,-2.930,-42.969,-36.621,-29.785,0
1664561518.704,-100.098,-43.945,-37.109,-51.758,0
1664561518.708,-78.613,-34.668,-30.762,-29.785,0
1664561518.712,25.391,-31.738,-29.297,2.441,0
1664561518.716,22.949,-39.062,-28.809,1.465,0
1664561518.733,-73.730,-34.180,-23.438,-20.996,0
1664561518.737,-90.820,-26.855,-20.996,-25.391,0
1664561518.741,-3.906,-33.691,-24.414,4.883,0
1664561518.745,29.297,-35.156,-22.461,17.090,0
1664561518.749,-62.500,-24.414,-20.996,-9.766,0
1664561518.753,-108.887,-24.414,-18.066,-14.160,0
1664561518.757,-43.457,-32.715,-20.020,7.812,0
1664561518.760,17.090,-31.250,-32.715,19.531,0
1664561518.764,-43.457,-26.367,-32.715,-4.883,0
1664561518.768,-123.535,-26.855,-28.809,-39.062,0
1664561518.772,-88.379,-30.273,-30.273,-37.109,0
1664561518.776,6.836,-27.832,-23.438,-4.395,0
1664561518.748,-24.414,-19.043,-18.555,-7.324,0
1664561518.752,-123.047,-20.996,-20.508,-40.527,0
1664561518.756,-112.793,-31.738,-24.414,-39.062,0
1664561518.760,-7.812,-39.062,-25.879,-12.207,0
1664561518.764,-0.977,-37.109,-27.344,-10.742,0
1664561518.768,-100.586,-32.715,-26.855,-40.527,0
1664561518.772,-127.441,-24.902,-24.414,-45.410,0
1664561518.775,-49.316,-19.043,-21.973,-13.672,0
1664561518.779,-2.441,-22.949,-32.227,-2.930,0
1664561518.783,-79.590,-29.297,-34.180,-28.320,0
1664561518.787,-135.742,-31.250,-25.879,-45.898,0
1664561518.791,-60.059,-37.598,-22.949,-22.461,0
1664561518.793,24.902,-34.180,-20.996,5.859,0
1664561518.797,-27.344,-28.320,-25.391,-12.695,0
1664561518.801,-111.328,-32.715,-22.461,-34.668,0
1664561518.805,-73.242,-35.156,-22.949,-20.996,0
1664561518.809,36.133,-33.691,-23.926,8.789,0
1664561518.813,4.395,-28.809,-23.926,-5.859,0
1664561518.817,-93.262,-29.785,-28.809,-36.133,0
1664561518.820,-91.309,-31.250,-23.438,-26.855,0
1664561518.824,2.441,-28.320,-17.578,3.906,0
1664561518.828,20.020,-27.832,-29.297,2.930,0
1664561518.832,-81.543,-40.039,-41.016,-33.691,0
1664561518.836,-117.676,-46.387,-34.180,-37.109,0
1664561518.838,-24.414,-35.645,-30.762,-8.301,0
1664561518.842,35.156,-29.785,-34.668,0.977,0
1664561518.846,-41.992,-36.621,-42.480,-23.438,0
1664561518.850,-105.957,-29.297,-39.551,-34.180,0
1664561518.854,-47.852,-15.625,-30.762,-19.043,0
1664561518.858,29.785,-19.043,-29.297,0.488,0
1664561518.862,-21.484,-27.832,-29.297,-16.602,0
1664561518.865,-100.586,-27.344,-33.691,-38.574,0
1664561518.869,-71.777,-23.926,-35.156,-22.949,0
1664561518.873,20.020,-27.832,-34.668,1.953,0
1664561518.877,7.324,-28.320,-38.574,-8.301,0
1664561518.881,-88.379,-32.715,-43.945,-44.434,0
1664561518.883,-100.586,-35.645,-46.387,-41.016,0
1664561518.887,8.789,-25.879,-45.898,4.395,0
1664561518.891,48.828,-21.484,-40.527,13.672,0
1664561518.895,-47.852,-27.832,-42.969,-18.066,0
1664561518.899,-93.262,-28.809,-42.969,-34.668,0
1664561518.903,-19.043,-21.484,-38.086,-11.230,0
1664561518.907,46.875,-21.484,-39.062,14.648,0
1664561518.910,-16.113,-25.391,-41.992,-13.672,0
1664561518.914,-90.820,-25.391,-44.434,-42.969,0
1664561518.918,-46.387,-15.625,-40.527,-23.438,0
1664561518.922,38.086,-9.766,-33.691,10.254,0
1664561518.926,-8.789,-20.020,-33.203,-4.883,0
1664561518.928,-100.098,-26.855,-34.668,-38.086,0
1664561518.932,-90.820,-28.320,-34.668,-35.645,0
1664561518.936,-4.395,-31.250,-42.480,-11.719,0
1664561518.940,-4.395,-37.109,-45.410,-21.973,0
1664561518.944,-96.191,-39.551,-41.992,-53.711,0
1664561518.948,-114.746,-37.598,-45.410,-59.570,0
1664561518.952,-30.273,-41.504,-49.316,-25.879,0
1664561518.955,5.859,-42.969,-41.016,-11.230,0
1664561518.959,-76.660,-41.016,-34.180,-38.574,0
1664561518.963,-125.000,-35.645,-32.715,-48.340,0
1664561518.967,-48.828,-27.832,-31.738,-17.090,0
1664561518.971,24.414,-30.273,-32.715,4.395,0
1664561518.988,-37.598,-28.809,-30.273,-15.137,0
1664561518.992,-110.840,-20.020,-28.809,-31.738,0
1664561518.996,-70.801,-30.273,-37.598,-18.066,0
1664561519.000,24.414,-36.133,-41.504,4.883,0
1664561519.004,-1.465,-25.391,-41.992,-4.395,0
1664561519.008,-96.680,-18.555,-37.109,-32.715,0
1664561519.012,-85.449,-22.949,-41.992,-34.180,0
1664561519.015,7.812,-32.715,-48.340,-5.371,0
1664561519.019,10.742,-29.297,-37.109,-2.930,0
1664561519.023,-85.449,-33.691,-38.086,-30.762,0
1664561519.027,-111.328,-35.645,-42.969,-41.016,0
1664561519.031,-23.438,-29.297,-44.922,-18.555,0
1664561519.033,20.508,-31.738,-54.199,-10.742,0
1664561519.037,-60.547,-29.297,-54.688,-34.668,0
1664561519.041,-120.117,-35.156,-48.340,-55.176,0
1664561519.045,-55.664,-35.645,-52.246,-40.039,0
1664561519.049,20.996,-31.738,-51.270,-7.324,0
1664561519.053,-31.738,-41.504,-49.805,-21.484,0
1664561519.057,-103.516,-42.969,-48.340,-41.504,0
1664561519.060,-70.801,-40.039,-50.293,-30.762,0
1664561519.064,22.949,-36.133,-45.898,0.488,0
1664561519.068,12.207,-28.809,-33.691,5.371,0
1664561519.072,-82.520,-26.367,-31.250,-20.996,0
1664561519.076,-86.914,-18.555,-35.156,-19.531,0
1664561519.078,9.277,-18.066,-36.621,10.254,0
1664561519.082,25.879,-26.367,-41.992,14.160,0
1664561519.086,-62.500,-30.273,-40.527,-17.090,0
1664561519.090,-97.168,-29.785,-38.086,-33.691,0
1664561519.094,-17.578,-25.391,-43.945,-9.277,0
1664561519.098,46.387,-21.973,-44.434,7.324,0
1664561519.102,-26.855,-22.949,-35.645,-16.113,0
1664561519.105,-105.469,-20.508,-38.086,-33.203,0
1664561519.109,-55.664,-18.066,-43.457,-16.113,0
1664561519.113,35.645,-20.020,-45.410,3.418,0
1664561519.117,-7.812,-17.090,-49.805,-12.207,0
1664561519.121,-104.492,-26.855,-46.875,-41.992,0
1664561519.123,-94.238,-38.086,-50.293,-31.250,0
1664561519.127,12.207,-34.668,-46.387,-1.465,0
1664561519.131,7.812,-29.785,-37.598,-12.207,0
1664561519.135,-94.238,-25.879,-32.715,-40.039,0
1664561519.139,-108.398,-22.949,-30.273,-40.039,0
1664561519.143,-18.555,-31.250,-34.180,-16.602,0
1664561519.147,17.090,-24.902,-33.691,-6.836,0
1664561519.150,-70.801,-23.438,-35.645,-35.156,0
1664561519.154,-126.953,-35.645,-39.551,-46.387,0
1664561519.158,-50.781,-39.062,-40.039,-22.949,0
1664561519.162,22.461,-35.645,-39.062,-0.977,0
1664561519.166,-42.480,-35.645,-35.156,-20.508,0
1664561519.168,-115.723,-31.250,-35.156,-45.410,0
1664561519.172,-76.172,-34.668,-42.969,-30.762,0
1664561519.176,19.043,-34.180,-36.133,-4.395,0
1664561519.180,-20.020,-33.203,-35.156,-24.414,0
1664561519.184,-122.559,-47.363,-47.363,-60.547,0
1664561519.188,-98.145,-40.527,-44.434,-48.828,0
1664561519.192,0.488,-27.344,-40.039,-18.066,0
1664561519.195,-2.930,-32.227,-40.527,-24.902,0
1664561519.199,-93.750,-38.574,-45.898,-50.293,0
1664561519.203,-116.211,-38.574,-50.781,-52.734,0
1664561519.207,-24.902,-41.504,-48.828,-26.855,0
1664561519.211,26.367,-39.551,-42.480,-12.207,0
1664561519.213,-61.523,-38.574,-43.457,-36.133,0
1664561519.217,-116.211,-32.715,-51.270,-44.922,0
1664561519.221,-39.062,-24.414,-49.316,-15.625,0
1664561519.225,41.992,-20.508,-41.504,7.324,0
1664561519.229,-15.625,-17.090,-40.527,-14.160,0
1664561519.233,-99.609,-23.438,-37.109,-41.016,0
1664561519.237,-71.289,-27.344,-35.156,-22.461,0
1664561519.240,18.066,-23.926,-35.156,12.207,0
1664561519.244,-9.766,-30.762,-33.203,-9.277,0
1664561519.248,-103.516,-37.109,-34.180,-44.922,0
1664561519.252,-99.121,-40.527,-31.738,-33.691,0
1664561519.256,-6.348,-42.480,-36.133,-1.953,0
1664561519.258,5.859,-33.691,-33.203,-0.488,0
1664561519.262,-93.262,-34.668,-33.203,-35.645,0
1664561519.266,-125.488,-32.715,-34.668,-42.480,0
1664561519.270,-34.180,-26.367,-25.879,-11.719,0
1664561519.274,14.648,-29.785,-28.320,0.000,0
1664561519.278,-60.059,-25.879,-30.273,-17.578,0
1664561519.282,-121.582,-28.320,-31.250,-26.855,0
1664561519.285,-64.941,-37.598,-28.320,-10.742,0
1664561519.289,19.531,-37.109,-31.738,12.207,0
1664561519.293,-32.227,-34.668,-33.203,-6.348,0
1664561519.297,-113.770,-30.762,-26.367,-35.645,0
1664561519.301,-79.102,-24.414,-30.273,-22.949,0
1664561519.303,21.484,-23.438,-30.273,6.348,0
1664561519.307,6.348,-19.043,-28.809,-1.465,0
1664561519.311,-96.680,-27.832,-37.598,-31.738,0
1664561519.315,-104.492,-36.621,-41.016,-34.668,0
1664561519.319,-15.137,-34.180,-38.574,-12.695,0
1664561519.323,5.371,-29.785,-38.574,-4.883,0
1664561519.327,-80.566,-27.832,-29.297,-28.320,0
1664561519.330,-119.141,-34.180,-23.926,-41.504,0
1664561519.334,-31.250,-33.691,-29.297,-9.766,0
1664561519.338,38.086,-33.203,-31.250,5.859,0
1664561519.342,-41.504,-36.621,-34.668,-20.508,0
1664561519.346,-107.910,-34.668,-37.598,-27.832,0
1664561519.363,-40.039,-29.785,-36.133,-4.395,0
1664561519.367,48.340,-24.414,-33.203,26.855,0
1664561519.371,-3.418,-24.414,-34.180,3.418,0
1664561519.375,-92.285,-26.855,-31.738,-30.273,0
1664561519.379,-73.730,-23.438,-29.785,-18.555,0
1664561519.383,18.555,-26.855,-32.715,14.160,0
1664561519.387,9.277,-32.227,-30.273,7.324,0
1664561519.390,-86.914,-28.320,-28.320,-30.273,0
1664561519.394,-96.680,-26.367,-28.809,-35.645,0
1664561519.398,0.000,-36.621,-31.250,-5.371,0
1664561519.402,21.484,-37.598,-31.738,2.441,0
1664561519.406,-74.707,-26.855,-36.621,-28.809,0
1664561519.409,-118.652,-20.508,-32.715,-42.969,0
1664561519.413,-46.387,-25.879,-21.484,-22.461,0
1664561519.417,22.461,-29.297,-27.832,-0.977,0
1664561519.421,-46.387,-30.762,-34.180,-24.902,0
1664561519.425,-123.535,-42.480,-32.715,-53.223,0
1664561519.429,-76.660,-42.969,-36.133,-36.621,0
1664561519.433,15.625,-32.227,-41.992,-6.836,0
1664561519.436,-22.461,-38.086,-42.480,-21.484,0
1664561519.440,-117.676,-42.480,-37.598,-48.828,0
1664561519.444,-112.793,-41.992,-28.809,-43.457,0
1664561519.448,-16.113,-45.410,-30.762,-13.184,0
1664561519.452,-4.883,-33.203,-30.762,0.488,0
1664561519.454,-109.375,-32.715,-30.762,-25.879,0
1664561519.458,-143.555,-39.551,-42.969,-43.457,0
1664561519.462,-48.828,-29.785,-33.203,-12.695,0
1664561519.466,-1.953,-24.902,-32.227,3.906,0
1664561519.470,-92.285,-32.227,-41.016,-20.996,0
1664561519.474,-150.879,-32.227,-38.574,-43.457,0
1664561519.478,-77.148,-32.715,-35.645,-27.344,0
1664561519.481,2.441,-25.879,-28.320,-0.488,0
1664561519.485,-64.453,-21.484,-28.809,-12.695,0
1664561519.489,-144.043,-35.156,-42.480,-38.574,0
1664561519.493,-97.168,-34.668,-40.039,-36.621,0
1664561519.497,0.000,-25.391,-31.250,1.465,0
1664561519.498,-21.484,-26.367,-33.203,-5.859,0
1664561519.502,-112.305,-34.180,-36.621,-37.598,0
1664561519.506,-110.840,-32.227,-33.203,-38.574,0
1664561519.510,-13.184,-30.273,-40.039,-16.113,0
1664561519.514,6.836,-30.273,-52.246,-6.348,0
1664561519.518,-83.984,-29.785,-47.852,-34.668,0
1664561519.522,-113.770,-31.250,-41.016,-47.363,0
1664561519.525,-19.531,-30.762,-32.227,-12.207,0
1664561519.529,32.227,-34.668,-28.809,3.906,0
1664561519.533,-50.781,-35.645,-32.715,-26.855,0
1664561519.537,-114.746,-26.367,-31.738,-46.875,0
1664561519.541,-65.430,-31.738,-37.109,-35.645,0
1664561519.558,22.949,-32.715,-39.551,-9.277,0
1664561519.562,-15.625,-22.949,-37.109,-22.949,0
1664561519.566,-107.422,-27.344,-39.062,-56.641,0
1664561519.570,-87.402,-32.227,-39.551,-45.898,0
1664561519.574,12.695,-25.879,-36.621,-13.184,0
1664561519.578,-3.418,-25.391,-37.109,-20.508,0
1664561519.582,-104.492,-32.715,-35.645,-52.246,0
1664561519.585,-107.422,-33.691,-30.762,-47.852,0
1664561519.589,-6.348,-27.832,-30.273,-17.090,0
1664561519.593,24.414,-27.832,-32.715,-16.113,0
1664561519.597,-60.547,-27.344,-36.133,-43.945,0
1664561519.601,-99.609,-21.973,-33.691,-48.828,0
1664561519.588,-24.414,-23.438,-32.227,-26.367,0
1664561519.592,32.715,-24.902,-30.762,-10.254,0
1664561519.596,-39.551,-24.902,-24.902,-30.762,0
1664561519.600,-109.863,-26.367,-25.879,-53.711,0
1664561519.604,-59.082,-28.320,-26.367,-34.180,0
1664561519.608,40.527,-25.879,-25.879,3.418,0
1664561519.612,1.953,-26.367,-30.762,-16.602,0
1664561519.615,-89.844,-20.996,-28.809,-51.758,0
1664561519.619,-70.312,-18.066,-27.832,-40.039,0
1664561519.623,29.785,-28.809,-27.832,-7.812,0
1664561519.627,25.391,-34.668,-28.320,-9.277,0
1664561519.631,-74.219,-29.297,-38.086,-41.504,0
1664561519.633,-92.773,-27.344,-44.922,-55.176,0
1664561519.637,0.977,-34.180,-42.480,-22.949,0
1664561519.641,40.527,-31.738,-41.992,-8.301,0
1664561519.645,-45.898,-21.484,-39.062,-34.180,0
1664561519.649,-87.891,-25.391,-28.320,-43.945,0
1664561519.653,-24.414,-33.203,-25.879,-24.902,0
1664561519.657,39.551,-22.949,-27.344,1.465,0
1664561519.660,-22.949,-26.855,-30.762,-15.137,0
1664561519.664,-104.492,-40.039,-32.715,-42.480,0
1664561519.668,-59.570,-37.109,-31.738,-20.996,0
1664561519.672,39.551,-35.645,-33.203,14.648,0
1664561519.676,7.812,-37.109,-39.551,1.953,0
1664561519.678,-82.520,-29.297,-42.480,-23.926,0
1664561519.682,-65.430,-27.832,-41.016,-18.066,0
1664561519.686,25.879,-32.227,-39.551,13.672,0
1664561519.690,14.648,-34.668,-36.621,12.207,0
1664561519.694,-80.078,-38.086,-39.551,-31.738,0
1664561519.698,-93.262,-29.297,-33.691,-30.273,0
1664561519.702,-9.277,-29.785,-35.156,3.906,0
1664561519.705,35.645,-33.691,-42.969,11.230,0
1664561519.709,-48.340,-42.480,-44.434,-18.555,0
1664561519.713,-110.840,-39.551,-45.898,-44.922,0
1664561519.717,-45.410,-30.273,-48.340,-26.855,0
1664561519.721,34.668,-32.715,-45.898,1.465,0
1664561519.739,-24.414,-29.785,-41.016,-20.508,0
1664561519.743,-104.492,-31.738,-44.922,-51.758,0
1664561519.747,-70.801,-43.457,-48.340,-38.574,0
1664561519.751,28.320,-34.180,-41.992,-9.766,0
1664561519.755,16.602,-19.043,-40.527,-14.160,0
1664561519.759,-81.055,-32.227,-45.410,-41.504,0
1664561519.763,-86.426,-43.945,-45.410,-46.875,0
1664561519.766,13.184,-41.992,-41.992,-17.090,0
1664561519.770,38.086,-35.645,-39.062,-5.859,0
1664561519.774,-50.293,-25.879,-38.086,-28.320,0
1664561519.778,-86.914,-21.973,-37.598,-48.828,0
1664561519.782,-5.859,-24.414,-41.504,-30.762,0
1664561519.785,52.734,-21.973,-43.945,-7.812,0
1664561519.789,-26.367,-28.320,-37.598,-37.109,0
1664561519.793,-92.773,-28.320,-28.320,-50.781,0
1664561519.797,-36.621,-19.043,-29.297,-30.762,0
1664561519.801,42.969,-26.367,-40.039,-9.766,0
1664561519.805,-5.371,-33.691,-46.875,-24.902,0
1664561519.809,-99.609,-33.691,-49.316,-54.199,0
1664561519.812,-75.195,-26.855,-40.527,-43.457,0
1664561519.816,27.344,-25.391,-37.109,-9.277,0
1664561519.820,11.230,-26.367,-45.898,-18.066,0
1664561519.824,-83.008,-20.020,-43.457,-48.340,0
1664561519.828,-92.285,-26.855,-31.738,-47.852,0
1664561519.843,-7.812,-29.785,-24.902,-13.672,0
1664561519.847,21.973,-27.344,-34.180,-10.742,0
1664561519.851,-67.871,-34.668,-40.039,-43.945,0
1664561519.855,-114.258,-31.250,-33.203,-51.270,0
1664561519.859,-40.039,-25.391,-32.227,-26.367,0
1664561519.863,23.926,-19.531,-39.062,-9.277,0
1664561519.867,-41.992,-10.742,-37.598,-28.809,0
1664561519.870,-102.539,-9.766,-26.855,-43.945,0
1664561519.874,-55.664,-19.043,-17.090,-20.508,0
1664561519.878,24.902,-20.508,-25.879,1.953,0
1664561519.882,-13.184,-18.555,-35.645,-19.531,0
1664561519.886,-104.004,-25.391,-34.668,-48.340,0
1664561519.873,-81.055,-24.414,-38.086,-46.387,0
1664561519.877,18.555,-24.902,-38.086,-13.184,0
1664561519.881,13.184,-29.297,-34.668,-13.672,0
1664561519.885,-80.078,-28.320,-34.180,-52.734,0
1664561519.889,-99.121,-21.484,-36.133,-54.199,0
1664561519.893,-12.207,-20.508,-36.133,-26.855,0
1664561519.897,30.273,-29.785,-44.922,-22.461,0
1664561519.900,-52.246,-36.621,-53.223,-52.246,0
1664561519.904,-101.074,-33.203,-48.340,-64.453,0
1664561519.908,-8.301,-19.043,-37.109,-34.180,0
1664561519.912,71.777,-17.578,-33.691,-14.160,0
1664561519.916,0.488,-29.785,-31.738,-40.527,0
1664561519.934,-78.125,-27.832,-29.785,-61.523,0
1664561519.938,-43.945,-25.391,-34.180,-52.246,0
1664561519.942,42.480,-35.156,-43.457,-24.414,0
1664561519.946,16.113,-35.645,-48.828,-29.785,0
1664561519.950,-77.637,-32.715,-40.527,-62.988,0
1664561519.954,-82.031,-34.180,-37.109,-65.918,0
1664561519.958,11.230,-29.785,-34.668,-38.574,0
1664561519.961,23.438,-24.902,-37.109,-32.227,0
1664561519.965,-75.684,-26.855,-42.480,-66.406,0
1664561519.969,-106.445,-28.320,-44.434,-76.660,0
1664561519.973,-24.902,-33.691,-46.875,-41.504,0
1664561519.977,27.344,-32.227,-41.504,-19.043,0
1664561519.978,-52.246,-37.598,-39.551,-43.457,0
1664561519.982,-111.328,-32.227,-35.156,-53.711,0
1664561519.986,-54.199,-27.832,-33.691,-38.574,0
1664561519.990,24.902,-31.250,-29.785,-22.949,0
1664561519.994,-25.879,-31.738,-33.691,-36.133,0
1664561519.998,-104.004,-34.180,-37.598,-58.105,0
1664561520.002,-70.801,-30.762,-34.668,-54.199,0
1664561520.005,21.484,-41.992,-44.922,-30.762,0
1664561520.009,5.371,-42.480,-44.922,-32.715,0
1664561520.013,-96.191,-40.527,-36.621,-64.453,0
1664561520.017,-105.957,-47.363,-31.250,-64.941,0
1664561520.021,-11.230,-39.551,-29.785,-30.273,0
1664561520.008,-2.930,-36.133,-38.086,-30.273,0
1664561520.012,-102.051,-33.691,-45.898,-67.383,0
1664561520.016,-136.719,-32.715,-43.457,-69.336,0
1664561520.020,-51.270,-32.715,-41.504,-39.062,0
1664561520.024,10.254,-31.250,-41.992,-24.414,0
1664561520.028,-63.477,-39.062,-41.016,-46.387,0
1664561520.032,-131.348,-34.668,-40.527,-68.848,0
1664561520.035,-74.219,-22.461,-35.156,-41.504,0
1664561520.039,7.812,-23.926,-32.715,-20.996,0
1664561520.043,-40.527,-36.133,-36.621,-45.410,0
1664561520.047,-121.094,-35.645,-38.086,-62.012,0
1664561520.051,-100.586,-22.949,-43.457,-55.664,0
1664561520.053,-0.488,-26.367,-46.387,-29.785,0
1664561520.057,3.418,-31.250,-45.410,-29.785,0
1664561520.061,-95.215,-26.855,-41.992,-57.617,0
1664561520.065,-112.793,-34.668,-37.109,-62.500,0
1664561520.069,-18.066,-37.109,-48.340,-38.086,0
1664561520.073,18.066,-20.020,-53.223,-26.367,0
1664561520.077,-71.289,-14.648,-47.363,-53.223,0
1664561520.080,-118.652,-20.508,-44.922,-66.406,0
1664561520.084,-44.434,-21.484,-43.457,-39.062,0
1664561520.088,21.973,-18.555,-47.363,-24.902,0
1664561520.092,-44.434,-25.879,-48.828,-48.340,0
1664561520.096,-113.770,-27.344,-44.434,-63.477,0
1664561520.113,-62.012,-20.996,-45.898,-40.039,0
1664561520.117,25.879,-16.602,-55.176,-15.137,0
1664561520.121,-13.672,-19.043,-50.293,-39.062,0
1664561520.125,-102.051,-21.973,-46.387,-72.754,0
1664561520.129,-86.426,-22.461,-47.852,-60.547,0
1664561520.133,4.395,-32.715,-49.805,-27.344,0
1664561520.137,9.277,-27.344,-43.945,-23.438,0
1664561520.140,-80.566,-17.090,-36.621,-47.363,0
1664561520.144,-95.703,-22.461,-35.156,-47.852,0
1664561520.148,-2.441,-18.555,-38.574,-12.695,0
1664561520.152,41.992,-7.812,-37.598,-0.488,0
1664561520.156,-43.457,-23.438,-39.062,-34.668,0
1664561520.158,-103.516,-37.109,-41.992,-56.152,0
1664561520.162,-33.203,-31.250,-37.598,-27.344,0
1664561520.166,36.621,-31.250,-36.133,-3.906,0
1664561520.170,-26.855,-32.227,-34.668,-23.438,0
1664561520.174,-99.121,-23.926,-36.133,-47.363,0
1664561520.178,-61.035,-28.320,-36.133,-35.645,0
1664561520.182,21.484,-29.297,-37.598,-9.766,0
1664561520.185,-7.812,-28.809,-45.898,-28.320,0
1664561520.189,-92.773,-32.227,-43.945,-52.734,0
1664561520.193,-90.332,-33.691,-39.551,-48.828,0
1664561520.197,-0.977,-28.809,-38.574,-26.367,0
1664561520.201,15.137,-20.508,-38.086,-15.625,0
1664561520.203,-78.125,-33.203,-42.480,-42.969,0
1664561520.207,-111.816,-38.574,-45.410,-58.594,0
1664561520.211,-33.691,-28.320,-42.969,-29.785,0
1664561520.215,16.113,-26.855,-36.133,-15.137,0
1664561520.219,-59.570,-32.715,-38.086,-44.434,0
1664561520.223,-116.699,-31.250,-37.598,-56.641,0
1664561520.227,-55.176,-31.250,-32.715,-35.156,0
1664561520.230,20.508,-39.551,-34.668,-16.602,0
1664561520.234,-33.691,-43.457,-39.062,-35.156,0
1664561520.238,-115.234,-38.086,-43.945,-65.430,0
1664561520.242,-81.055,-31.738,-41.992,-57.617,0
1664561520.246,15.625,-32.715,-40.527,-27.344,0
1664561520.248,-1.953,-31.738,-46.387,-32.227,0
1664561520.252,-95.215,-30.762,-39.062,-58.105,0
1664561520.256,-102.051,-28.809,-33.203,-58.105,0
1664561520.260,-12.695,-31.250,-36.133,-28.809,0
1664561520.264,4.883,-39.551,-37.109,-22.461,0
1664561520.268,-87.402,-42.480,-41.016,-42.969,0
1664561520.272,-119.141,-36.621,-50.781,-54.688,0
1664561520.275,-34.180,-29.297,-46.387,-31.738,0
1664561520.279,27.832,-35.645,-33.203,-6.348,0
1664561520.283,-40.527,-35.156,-31.738,-27.344,0
1664561520.287,-105.469,-22.949,-30.273,-48.828,0
1664561520.291,-56.152,-30.762,-23.926,-26.367,0
1664561520.293,30.762,-44.922,-20.020,-1.465,0
1664561520.297,-8.789,-41.016,-24.902,-17.578,0
1664561520.301,-102.051,-32.227,-30.762,-41.992,0
1664561520.305,-78.613,-25.391,-28.809,-32.715,0
1664561520.309,27.344,-29.785,-28.320,-4.395,0
1664561520.313,22.461,-33.691,-31.250,-14.160,0
1664561520.317,-77.148,-31.738,-33.691,-52.246,0
1664561520.320,-91.309,-31.250,-24.414,-47.363,0
1664561520.324,-0.488,-32.227,-24.902,-14.160,0
1664561520.328,29.785,-27.344,-38.086,-9.766,0
1664561520.332,-59.570,-29.785,-39.551,-41.504,0
1664561520.336,-109.863,-20.996,-42.480,-59.570,0
1664561520.338,-37.598,-14.648,-37.109,-30.762,0
1664561520.342,29.297,-33.203,-33.691,-14.648,0
1664561520.346,-28.809,-29.297,-31.250,-28.809,0
1664561520.350,-108.398,-20.996,-34.180,-52.734,0
1664561520.354,-69.824,-22.461,-38.086,-47.363,0
1664561520.358,29.297,-24.902,-31.250,-13.672,0
1664561520.362,-6.348,-26.367,-34.180,-24.414,0
1664561520.365,-101.562,-20.508,-42.480,-51.758,0
1664561520.369,-85.449,-15.137,-44.922,-48.828,0
1664561520.373,15.137,-19.043,-34.668,-18.066,0
1664561520.377,16.602,-29.785,-25.879,-19.043,0
1664561520.381,-80.566,-35.156,-32.227,-48.340,0
1664561520.414,-108.887,-31.738,-40.527,-54.199,0
1664561520.418,-22.461,-22.949,-46.387,-26.855,0
1664561520.422,24.902,-20.996,-43.945,-10.742,0
1664561520.426,-45.410,-18.555,-38.086,-34.180,0
1664561520.430,-94.238,-14.160,-31.250,-42.969,0
1664561520.434,-28.809,-16.113,-32.227,-20.020,0
1664561520.438,39.551,-23.438,-33.691,-1.953,0
1664561520.441,-28.320,-32.227,-32.715,-25.391,0
1664561520.445,-104.004,-27.344,-30.762,-54.688,0
1664561520.449,-69.336,-24.902,-32.715,-50.781,0
1664561520.453,24.414,-27.832,-38.086,-21.973,0
1664561520.457,2.930,-27.344,-41.992,-30.762,0
1664561520.428,-89.844,-31.250,-40.039,-62.500,0
1664561520.432,-79.102,-29.785,-34.180,-51.270,0
1664561520.436,17.578,-24.414,-34.180,-15.625,0
1664561520.440,25.391,-17.090,-32.715,-14.160,0
1664561520.444,-64.941,-16.113,-31.738,-46.387,0
1664561520.448,-96.680,-19.043,-30.762,-53.711,0
1664561520.452,-21.484,-21.973,-28.320,-33.691,0
1664561520.455,33.691,-32.715,-33.691,-28.320,0
1664561520.459,-32.227,-33.691,-40.039,-49.805,0
1664561520.463,-101.074,-33.691,-37.598,-60.059,0
1664561520.467,-48.828,-32.227,-29.785,-38.086,0
1664561520.471,34.668,-26.367,-33.203,-17.090,0
1664561520.548,-10.254,-21.484,-33.203,-36.621,0
1664561520.552,-95.215,-20.508,-28.809,-56.152,0
1664561520.556,-78.125,-27.344,-36.133,-41.016,0
1664561520.560,19.531,-32.715,-43.945,-13.184,0
1664561520.564,9.766,-38.574,-40.527,-17.578,0
1664561520.568,-86.426,-31.738,-38.086,-41.504,0
1664561520.572,-91.797,-20.996,-34.668,-40.039,0
1664561520.575,-2.930,-19.043,-34.180,-15.137,0
1664561520.579,21.484,-25.391,-37.109,-8.789,0
1664561520.583,-71.289,-33.203,-34.668,-33.203,0
1664561520.587,-119.141,-34.180,-38.574,-49.805,0
1664561520.591,-44.434,-35.645,-41.992,-26.367,0
1664561520.566,9.277,-35.645,-42.480,-9.277,0
1664561520.570,-63.477,-29.785,-41.016,-35.156,0
1664561520.574,-127.930,-28.809,-33.203,-51.270,0
1664561520.578,-79.102,-31.738,-30.273,-39.551,0
1664561520.582,0.977,-27.344,-37.598,-22.461,0
1664561520.586,-28.320,-20.996,-37.598,-28.809,0
1664561520.590,-114.746,-30.762,-32.227,-52.246,0
1664561520.593,-100.098,-39.551,-32.715,-52.734,0
1664561520.597,7.324,-35.156,-38.574,-23.438,0
1664561520.601,5.859,-26.367,-35.645,-24.902,0
1664561520.605,-89.844,-18.555,-28.809,-53.223,0
1664561520.609,-113.770,-29.785,-33.691,-55.664,0
1664561520.580,-22.461,-24.902,-33.691,-27.832,0
1664561520.584,17.090,-16.113,-31.738,-22.461,0
1664561520.588,-68.359,-20.996,-31.738,-50.293,0
1664561520.592,-114.258,-21.973,-34.668,-64.453,0
1664561520.596,-46.875,-18.066,-33.691,-40.039,0
1664561520.600,23.926,-22.461,-27.832,-23.438,0
1664561520.604,-33.203,-29.297,-28.320,-49.316,0
1664561520.607,-111.328,-29.297,-28.320,-66.406,0
1664561520.611,-66.895,-25.879,-27.344,-39.551,0
1664561520.615,31.738,-24.902,-27.344,-9.277,0
1664561520.619,0.000,-20.020,-28.809,-24.902,0
1664561520.623,-91.309,-10.742,-28.320,-57.617,0
1664561520.623,-81.543,-10.742,-27.832,-57.617,0
1664561520.627,19.531,-15.625,-23.926,-23.926,0
1664561520.631,23.926,-16.602,-24.902,-20.508,0
1664561520.635,-76.172,-22.949,-27.344,-56.152,0
1664561520.639,-102.539,-23.926,-25.391,-57.129,0
1664561520.643,-21.973,-23.926,-28.320,-34.668,0
1664561520.647,25.391,-30.273,-34.180,-25.879,0
1664561520.650,-53.711,-32.227,-39.062,-43.457,0
1664561520.654,-109.863,-22.949,-28.809,-50.293,0
1664561520.658,-41.504,-21.973,-27.832,-40.527,0
1664561520.662,32.227,-26.855,-26.855,-23.438,0
1664561520.666,-29.297,-22.949,-20.508,-38.086,0
1664561520.723,-110.352,-13.184,-32.227,-65.918,0
1664561520.727,-84.473,-13.184,-40.527,-57.617,0
1664561520.731,12.207,-16.602,-36.133,-21.484,0
1664561520.735,2.441,-20.508,-35.645,-21.973,0
1664561520.739,-95.703,-25.391,-44.434,-56.641,0
1664561520.743,-97.656,-30.273,-44.922,-62.988,0
1664561520.747,-2.441,-27.832,-43.945,-36.133,0
1664561520.750,11.230,-28.320,-50.293,-24.902,0
1664561520.754,-80.078,-28.809,-54.199,-54.688,0
1664561520.758,-114.258,-30.762,-52.734,-73.242,0
1664561520.762,-42.480,-34.668,-50.781,-43.945,0
1664561520.766,5.371,-33.691,-42.969,-17.578,0
1664561520.723,-60.059,-31.250,-41.016,-39.062,0
1664561520.727,-119.141,-23.926,-41.992,-61.035,0
1664561520.731,-70.312,-17.090,-45.410,-43.457,0
1664561520.735,2.441,-31.738,-42.969,-24.414,0
1664561520.739,-44.922,-51.270,-39.551,-45.410,0
1664561520.743,-124.023,-42.480,-37.109,-71.777,0
1664561520.747,-98.633,-34.668,-28.320,-55.176,0
1664561520.750,-4.395,-39.551,-37.598,-29.297,0
1664561520.754,-8.789,-34.668,-42.480,-36.621,0
1664561520.758,-93.750,-14.648,-36.133,-55.664,0
1664561520.762,-111.816,-17.578,-37.109,-60.547,0
1664561520.766,-27.832,-39.062,-41.016,-41.016,0
1664561520.758,2.930,-35.645,-37.109,-30.762,0
