timestamps,TP9,AF7,AF8,TP10
1664548747.590,-51.270,-7.812,374.512,-55.176
1664548747.594,-61.035,-7.812,357.910,-61.035
1664548747.598,-58.105,-18.066,339.844,-61.035
1664548747.602,-44.922,-29.785,326.660,-59.082
1664548747.606,-38.574,-24.414,336.426,-54.199
1664548747.610,-56.152,-15.625,344.238,-64.453
1664548747.614,-61.035,-17.090,316.406,-64.941
1664548747.617,-51.758,-20.996,259.766,-48.340
1664548747.621,-55.664,-16.113,345.703,-67.871
1664548747.625,-59.570,-18.066,384.766,-86.426
1664548747.629,-67.871,-30.762,312.012,-84.961
1664548747.633,-68.359,-27.344,317.383,-72.266
1664548747.635,-62.012,-19.043,358.398,-68.848,0
1664548747.639,-71.289,-29.785,352.539,-80.078,0
1664548747.643,-83.496,-36.133,311.523,-82.031,0
1664548747.647,-81.055,-27.832,336.914,-76.172,0
1664548747.651,-52.246,-14.160,327.637,-46.875,0
1664548747.655,-47.363,-20.020,321.289,-32.715,0
1664548747.659,-70.801,-41.504,269.531,-47.363,0
1664548747.662,-81.543,-36.133,262.695,-69.336,0
1664548747.666,-70.801,-21.484,402.344,-79.590,0
1664548747.670,-57.129,-26.855,375.000,-71.289,0
1664548747.674,-69.824,-24.414,361.328,-68.359,0
1664548747.678,-77.637,-14.160,384.766,-58.105,0
1664548747.680,-72.266,-20.020,407.715,-57.129,0
1664548747.684,-68.359,-34.668,409.180,-47.852,0
1664548747.688,-73.242,-32.227,409.668,-44.922,0
1664548747.692,-77.148,-22.461,419.434,-51.758,0
1664548747.696,-62.988,-24.414,398.438,-38.086,0
1664548747.700,-59.570,-34.180,399.414,-39.062,0
1664548747.704,-69.824,-35.645,407.715,-41.504,0
1664548747.707,-77.637,-24.414,444.336,-53.223,0
1664548747.711,-66.895,-14.648,482.422,-58.105,0
1664548747.715,-54.199,-20.996,468.750,-49.316,0
1664548747.719,-61.035,-28.809,441.406,-57.617,0
1664548747.723,-79.590,-28.809,442.383,-75.684,0
1664548747.724,-84.473,-27.832,470.215,-75.684,0
1664548747.728,-65.918,-26.855,449.219,-53.223,0
1664548747.732,-67.383,-31.250,440.430,-59.570,0
1664548747.736,-80.566,-26.367,476.562,-65.430,0
1664548747.740,-83.008,-27.344,471.680,-56.152,0
1664548747.744,-71.777,-38.086,388.672,-40.527,0
1664548747.748,-62.012,-35.156,422.852,-31.250,0
1664548747.751,-72.266,-22.949,507.812,-54.199,0
1664548747.755,-70.801,-19.531,479.980,-45.898,0
1664548747.759,-50.781,-20.996,459.961,-21.484,0
1664548747.763,-59.082,-24.414,471.680,-40.527,0
1664548747.767,-70.801,-32.227,477.051,-54.688,0
1664548747.785,-75.195,-28.809,482.422,-47.363,0
1664548747.789,-77.148,-23.438,507.812,-44.922,0
1664548747.793,-59.570,-24.414,503.418,-44.922,0
1664548747.797,-44.434,-19.043,510.742,-45.898,0
1664548747.801,-40.039,-16.602,502.930,-34.180,0
1664548747.805,-46.875,-16.602,490.234,-30.273,0
1664548747.809,-64.941,-25.391,530.273,-50.781,0
1664548747.812,-74.219,-28.320,543.457,-55.664,0
1664548747.816,-78.613,-30.273,521.484,-51.270,0
1664548747.820,-93.750,-39.062,526.855,-59.082,0
1664548747.824,-96.680,-31.250,556.641,-61.523,0
1664548747.828,-83.008,-29.297,569.336,-73.730,0
1664548747.830,-88.867,-34.180,537.109,-88.379,0
1664548747.834,-100.586,-33.203,505.859,-92.773,0
1664548747.838,-97.168,-23.926,539.062,-91.797,0
1664548747.842,-80.566,-18.066,542.969,-87.402,0
1664548747.846,-69.824,-23.438,494.141,-74.707,0
1664548747.850,-81.543,-25.879,474.121,-69.336,0
1664548747.854,-94.727,-24.902,502.441,-70.312,0
1664548747.857,-83.984,-26.855,522.949,-69.336,0
1664548747.861,-57.129,-31.250,446.777,-42.480,0
1664548747.865,-66.406,-24.414,468.750,-40.039,0
1664548747.869,-87.891,-18.555,537.109,-73.730,0
1664548747.873,-73.242,-27.832,499.023,-66.406,0
1664548747.875,-59.570,-31.738,505.371,-51.758,0
1664548747.879,-69.824,-28.320,527.832,-58.594,0
1664548747.883,-78.125,-27.344,522.949,-63.477,0
1664548747.887,-68.848,-30.273,492.188,-62.012,0
1664548747.891,-60.059,-31.738,478.027,-52.246,0
1664548747.895,-57.617,-35.645,490.234,-42.480,0
1664548747.899,-76.172,-29.785,518.066,-57.129,0
1664548747.902,-79.102,-28.809,503.906,-61.523,0
1664548747.906,-59.570,-30.273,492.676,-39.551,0
1664548747.910,-65.918,-17.090,527.344,-51.758,0
1664548747.914,-80.566,-20.508,513.184,-66.406,0
1664548747.918,-86.426,-21.973,498.535,-69.336,0
1664548747.920,-75.195,-18.555,512.207,-69.824,0
1664548747.924,-65.430,-23.926,519.531,-70.312,0
1664548747.928,-76.660,-32.227,511.719,-90.332,0
1664548747.932,-84.473,-33.203,468.750,-95.703,0
1664548747.936,-66.406,-23.438,485.352,-70.801,0
1664548747.940,-55.176,-22.949,495.605,-42.969,0
1664548747.944,-61.523,-24.902,487.793,-51.270,0
1664548747.947,-62.012,-30.762,460.449,-51.758,0
1664548747.951,-65.918,-26.855,477.051,-45.410,0
1664548747.955,-66.406,-22.461,534.668,-62.012,0
1664548747.959,-59.082,-28.320,500.977,-54.199,0
1664548747.963,-73.730,-24.902,509.766,-57.617,0
1664548748.004,-82.520,-23.926,525.391,-75.195,0
1664548748.008,-53.711,-23.926,505.371,-69.824,0
1664548748.012,-45.410,-21.484,473.633,-47.363,0
1664548748.016,-73.242,-19.531,476.562,-51.270,0
1664548748.020,-85.938,-27.832,503.906,-73.242,0
1664548748.024,-74.707,-32.227,502.930,-76.660,0
1664548748.028,-67.383,-28.809,509.277,-70.312,0
1664548748.031,-66.895,-25.879,490.234,-52.246,0
1664548748.035,-81.055,-20.996,504.395,-61.035,0
1664548748.039,-78.125,-19.043,519.531,-75.195,0
1664548748.043,-54.688,-18.555,500.977,-51.270,0
1664548748.047,-64.941,-17.090,516.113,-54.688,0
1664548748.010,-78.125,-14.160,516.113,-76.172,0
1664548748.014,-67.383,-15.625,522.949,-73.730,0
1664548748.018,-57.617,-23.438,502.441,-70.801,0
1664548748.022,-60.547,-25.391,504.883,-79.590,0
1664548748.026,-70.312,-18.066,533.691,-79.590,0
1664548748.030,-77.148,-20.996,509.277,-79.102,0
1664548748.034,-65.918,-33.691,445.312,-63.477,0
1664548748.037,-57.129,-26.367,458.008,-51.758,0
1664548748.041,-81.543,-20.996,532.715,-86.426,0
1664548748.045,-88.867,-34.180,507.324,-89.844,0
1664548748.049,-67.871,-33.691,503.418,-64.453,0
1664548748.053,-55.664,-27.832,519.531,-62.988,0
1664548748.054,-60.059,-24.414,521.973,-59.082,0
1664548748.058,-67.383,-22.461,495.605,-43.945,0
1664548748.062,-69.824,-24.414,478.027,-60.059,0
1664548748.066,-67.871,-33.691,522.461,-86.914,0
1664548748.070,-65.430,-39.551,532.715,-80.078,0
1664548748.074,-70.312,-40.527,490.234,-63.477,0
1664548748.078,-58.105,-34.180,472.168,-41.992,0
1664548748.081,-45.410,-23.438,514.160,-45.410,0
1664548748.085,-54.688,-30.273,519.531,-74.219,0
1664548748.089,-62.012,-33.203,489.746,-67.383,0
1664548748.093,-61.523,-34.668,481.445,-51.270,0
1664548748.097,-48.828,-35.156,505.859,-62.988,0
1664548748.099,-47.363,-31.250,512.695,-73.242,0
1664548748.103,-58.594,-39.551,463.379,-67.871,0
1664548748.107,-64.453,-39.551,466.309,-71.289,0
1664548748.111,-58.105,-34.180,472.168,-69.336,0
1664548748.115,-51.758,-32.715,455.078,-67.383,0
1664548748.119,-57.617,-42.480,395.508,-59.082,0
1664548748.123,-68.359,-43.457,430.176,-61.523,0
1664548748.126,-66.406,-28.320,506.836,-66.895,0
1664548748.130,-45.410,-30.273,471.191,-52.734,0
1664548748.134,-46.387,-41.016,446.289,-51.758,0
1664548748.138,-65.918,-31.250,474.609,-62.012,0
1664548748.142,-60.059,-24.414,493.652,-61.523,0
1664548748.160,-51.758,-34.180,490.723,-55.176,0
1664548748.164,-52.246,-30.273,506.836,-64.941,0
1664548748.168,-54.688,-16.602,512.695,-73.242,0
1664548748.172,-58.105,-20.508,501.465,-65.918,0
1664548748.176,-53.223,-31.738,485.352,-47.363,0
1664548748.180,-43.945,-35.156,471.680,-37.598,0
1664548748.184,-62.012,-34.180,497.070,-67.871,0
1664548748.187,-69.336,-28.809,519.043,-74.707,0
1664548748.191,-49.805,-36.133,510.254,-58.105,0
1664548748.195,-44.434,-42.969,519.531,-56.152,0
1664548748.199,-54.199,-35.156,546.875,-62.500,0
1664548748.203,-57.129,-20.996,542.969,-68.359,0
1664548748.204,-47.363,-20.996,497.070,-57.617,0
1664548748.208,-41.504,-28.809,520.020,-47.852,0
1664548748.212,-48.828,-26.367,560.547,-54.688,0
1664548748.216,-58.105,-31.738,537.109,-52.246,0
1664548748.220,-62.500,-37.109,482.910,-47.852,0
1664548748.224,-54.688,-30.762,486.816,-53.711,0
1664548748.228,-54.199,-30.762,513.672,-62.988,0
1664548748.231,-71.777,-31.738,511.719,-77.148,0
1664548748.235,-65.430,-32.715,465.820,-51.758,0
1664548748.239,-55.176,-31.250,469.727,-41.992,0
1664548748.243,-62.500,-23.926,525.879,-65.918,0
1664548748.247,-61.035,-27.344,469.238,-50.293,0
1664548748.251,-70.312,-28.809,444.336,-56.152,0
1664548748.255,-73.730,-31.250,433.594,-69.824,0
1664548748.259,-56.641,-27.832,399.902,-62.500,0
1664548748.263,-55.176,-28.809,348.633,-67.383,0
1664548748.267,-64.941,-31.738,293.945,-73.730,0
1664548748.271,-62.500,-31.250,266.602,-73.730,0
1664548748.275,-51.758,-22.461,250.977,-75.684,0
1664548748.278,-41.016,-22.461,84.473,-62.500,0
1664548748.282,-47.852,-21.484,-204.590,-41.992,0
1664548748.286,-60.547,-7.812,-163.574,-58.105,0
1664548748.290,-57.129,-7.812,-159.180,-66.895,0
1664548748.294,-59.570,-17.090,-335.449,-54.688,0
1664548748.295,-69.824,-20.020,-347.656,-54.199,0
1664548748.299,-72.266,-14.160,-302.734,-62.500,0
1664548748.303,-60.059,-18.555,-353.516,-57.617,0
1664548748.307,-46.387,-27.344,-411.133,-41.504,0
1664548748.311,-45.410,-32.227,-449.219,-36.133,0
1664548748.315,-56.152,-37.598,-453.125,-43.457,0
1664548748.319,-58.594,-20.996,-426.270,-54.199,0
1664548748.322,-45.898,-16.602,-530.273,-37.598,0
1664548748.326,-57.617,-23.438,-532.227,-40.039,0
1664548748.330,-75.195,-12.695,-439.453,-73.730,0
1664548748.334,-58.105,-15.137,-500.977,-66.406,0
1664548748.338,-44.434,-16.602,-530.273,-57.129,0
1664548748.340,-50.293,-9.766,-549.805,-62.988,0
1664548748.344,-61.523,-0.977,-577.148,-67.871,0
1664548748.348,-62.012,-0.977,-604.492,-62.500,0
1664548748.352,-46.875,-8.789,-597.168,-52.246,0
1664548748.356,-44.434,-17.578,-599.121,-60.059,0
1664548748.360,-49.805,-26.367,-623.047,-66.406,0
1664548748.364,-56.152,-28.320,-604.492,-58.105,0
1664548748.367,-43.945,-26.367,-569.336,-33.691,0
1664548748.371,-37.598,-14.160,-484.863,-39.062,0
1664548748.375,-58.105,-16.602,-500.000,-59.570,0
1664548748.379,-66.895,-27.832,-540.039,-62.988,0
1664548748.383,-65.918,-28.809,-512.207,-71.289,0
1664548748.400,-55.664,-30.273,-502.930,-66.406,0
1664548748.404,-57.129,-32.715,-537.109,-57.617,0
1664548748.408,-66.895,-29.297,-520.996,-52.734,0
1664548748.412,-60.547,-34.668,-490.234,-50.781,0
1664548748.416,-49.805,-36.621,-481.934,-54.688,0
1664548748.420,-51.270,-30.762,-476.074,-60.547,0
1664548748.424,-63.477,-34.668,-528.809,-57.617,0
1664548748.427,-77.148,-35.645,-501.953,-57.129,0
1664548748.431,-75.684,-28.320,-425.293,-75.195,0
1664548748.435,-51.758,-28.320,-529.785,-58.105,0
1664548748.439,-51.270,-25.391,-551.270,-42.480,0
1664548748.443,-68.848,-21.973,-518.066,-53.711,0
1664548748.429,-65.430,-23.438,-561.523,-62.988,0
1664548748.433,-58.105,-27.832,-616.699,-60.547,0
1664548748.437,-58.594,-27.344,-679.688,-56.641,0
1664548748.441,-69.824,-17.578,-698.730,-63.477,0
1664548748.445,-72.754,-19.043,-723.145,-72.754,0
1664548748.449,-52.246,-24.902,-756.836,-63.477,0
1664548748.453,-51.758,-20.020,-691.406,-59.082,0
1664548748.456,-64.941,-20.508,-641.602,-63.965,0
1664548748.460,-69.336,-25.391,-611.328,-65.918,0
1664548748.464,-55.176,-33.691,-629.883,-62.500,0
1664548748.468,-48.828,-38.574,-657.715,-47.852,0
1664548748.472,-66.895,-23.926,-572.266,-58.594,0
1664548748.475,-64.453,-20.020,-575.195,-65.430,0
1664548748.479,-56.152,-31.738,-627.441,-52.246,0
1664548748.483,-50.293,-35.645,-623.047,-45.410,0
1664548748.487,-49.316,-24.414,-612.305,-49.316,0
1664548748.491,-59.082,-24.902,-663.574,-54.199,0
1664548748.495,-51.270,-37.109,-670.898,-44.922,0
1664548748.499,-38.086,-38.086,-662.598,-41.504,0
1664548748.502,-48.828,-31.738,-650.879,-53.711,0
1664548748.506,-57.129,-26.855,-612.793,-63.965,0
1664548748.510,-41.504,-29.297,-611.816,-47.363,0
1664548748.514,-30.273,-28.320,-553.223,-36.621,0
1664548748.518,-42.480,-26.367,-502.441,-56.152,0
1664548748.534,-53.223,-23.438,-490.723,-56.152,0
1664548748.538,-63.477,-18.555,-490.234,-51.270,0
1664548748.542,-54.199,-19.043,-486.328,-55.664,0
1664548748.546,-43.457,-21.484,-479.492,-58.105,0
1664548748.550,-55.664,-25.879,-484.375,-57.129,0
1664548748.554,-60.059,-30.762,-500.977,-49.316,0
1664548748.558,-47.363,-25.391,-479.980,-47.363,0
1664548748.561,-43.457,-25.879,-470.215,-53.711,0
1664548748.565,-47.852,-33.691,-531.250,-54.688,0
1664548748.569,-53.711,-31.250,-535.156,-47.852,0
1664548748.573,-55.664,-27.832,-492.676,-53.223,0
1664548748.577,-49.316,-26.855,-471.191,-61.035,0
1664548748.581,-49.805,-32.715,-520.996,-61.035,0
1664548748.585,-62.988,-36.621,-558.594,-62.988,0
1664548748.589,-64.453,-32.715,-541.504,-70.312,0
1664548748.593,-49.805,-29.297,-578.613,-65.430,0
1664548748.597,-42.969,-28.809,-623.047,-42.480,0
1664548748.601,-48.828,-31.250,-647.461,-40.527,0
1664548748.605,-58.105,-25.391,-635.742,-62.012,0
1664548748.608,-53.223,-19.531,-639.648,-70.801,0
1664548748.612,-40.527,-33.203,-729.004,-45.898,0
1664548748.616,-32.715,-23.438,-721.680,-27.832,0
1664548748.620,-38.086,-6.836,-623.535,-41.504,0
1664548748.624,-56.641,-25.391,-647.949,-53.711,0
1664548748.625,-66.895,-34.668,-674.805,-68.359,0
1664548748.629,-69.824,-22.461,-648.926,-68.848,0
1664548748.633,-70.312,-17.578,-663.086,-51.270,0
1664548748.637,-56.641,-22.949,-676.270,-32.715,0
1664548748.641,-47.852,-35.645,-693.359,-30.762,0
1664548748.645,-61.523,-45.898,-704.590,-49.805,0
1664548748.649,-79.102,-39.551,-663.086,-65.918,0
1664548748.652,-70.312,-39.062,-687.012,-55.664,0
1664548748.656,-60.059,-46.875,-712.891,-31.738,0
1664548748.660,-70.801,-40.527,-628.418,-43.457,0
1664548748.664,-75.195,-43.945,-625.000,-55.664,0
1664548748.668,-68.359,-48.828,-679.199,-42.969,0
1664548748.670,-56.152,-40.039,-682.129,-28.809,0
1664548748.674,-62.012,-36.621,-631.836,-28.809,0
1664548748.678,-74.219,-37.598,-624.512,-47.363,0
1664548748.682,-76.172,-45.898,-626.953,-52.734,0
1664548748.686,-69.336,-48.340,-620.605,-42.969,0
1664548748.690,-53.711,-45.898,-630.859,-34.180,0
1664548748.694,-65.430,-43.945,-599.609,-45.898,0
1664548748.697,-70.801,-48.340,-640.137,-38.574,0
1664548748.701,-64.453,-41.504,-615.234,-23.926,0
1664548748.705,-69.336,-29.297,-514.648,-52.246,0
1664548748.709,-69.824,-41.016,-551.758,-62.988,0
1664548748.713,-79.102,-39.062,-559.570,-62.012,0
1664548748.716,-76.172,-37.109,-530.273,-59.570,0
1664548748.720,-59.082,-39.551,-530.273,-50.781,0
1664548748.724,-53.711,-41.016,-550.781,-44.434,0
1664548748.728,-69.824,-42.480,-547.363,-52.734,0
1664548748.732,-82.031,-38.086,-511.230,-64.941,0
1664548748.736,-65.918,-37.598,-505.859,-61.035,0
1664548748.740,-54.199,-38.574,-526.367,-59.570,0
1664548748.743,-65.918,-41.016,-511.230,-45.410,0
1664548748.747,-85.938,-31.738,-433.594,-56.641,0
1664548748.751,-83.496,-27.832,-460.938,-74.219,0
1664548748.755,-60.547,-36.133,-534.668,-54.199,0
1664548748.759,-70.801,-33.203,-525.879,-50.293,0
1664548748.760,-89.844,-22.461,-469.238,-69.824,0
1664548748.764,-79.590,-23.438,-463.867,-77.637,0
1664548748.768,-62.988,-28.320,-484.863,-66.406,0
1664548748.772,-62.500,-24.902,-469.238,-57.129,0
1664548748.776,-76.660,-27.832,-481.934,-58.105,0
1664548748.780,-75.195,-31.250,-496.094,-55.664,0
1664548748.784,-56.152,-36.621,-518.555,-38.574,0
1664548748.787,-53.223,-32.715,-468.262,-31.738,0
1664548748.791,-64.453,-22.461,-352.051,-62.012,0
1664548748.795,-68.359,-30.762,-428.711,-73.242,0
1664548748.799,-67.871,-34.180,-473.633,-66.895,0
1664548748.803,-59.570,-30.762,-462.402,-63.477,0
1664548748.805,-66.406,-25.879,-459.961,-59.570,0
1664548748.809,-77.637,-29.297,-478.516,-53.223,0
1664548748.813,-72.266,-35.645,-489.746,-56.152,0
1664548748.817,-54.688,-30.762,-459.961,-54.688,0
1664548748.821,-51.270,-26.367,-477.539,-48.340,0
1664548748.825,-63.477,-30.762,-513.184,-46.875,0
1664548748.829,-62.988,-28.809,-454.102,-32.715,0
1664548748.832,-54.688,-15.625,-361.816,-38.086,0
1664548748.836,-59.570,-16.602,-322.266,-57.129,0
1664548748.840,-69.336,-22.949,-338.379,-57.617,0
1664548748.844,-69.824,-26.855,-358.887,-57.617,0
1664548748.848,-62.988,-23.926,-256.836,-51.758,0
1664548748.850,-63.965,-22.461,-178.711,-47.363,0
1664548748.854,-64.941,-25.391,-238.281,-51.758,0
1664548748.858,-67.383,-21.973,-254.883,-61.035,0
1664548748.862,-66.406,-20.996,-171.387,-69.824,0
1664548748.866,-40.527,-17.090,-178.711,-54.688,0
1664548748.870,-22.461,-16.113,-326.660,-13.672,0
1664548748.874,-44.434,-17.090,-349.609,-12.207,0
1664548748.877,-80.566,-17.578,-173.340,-58.105,0
1664548748.881,-76.172,-26.367,-162.598,-62.988,0
1664548748.885,-55.664,-33.691,-317.383,-38.574,0
1664548748.889,-69.336,-29.297,-306.152,-38.086,0
1664548748.893,-65.918,-16.113,-162.598,-39.551,0
1664548748.938,-44.922,-23.926,-208.984,-32.227,0
1664548748.942,-55.176,-33.203,-273.926,-44.922,0
1664548748.946,-65.430,-25.391,-270.996,-49.805,0
1664548748.950,-59.570,-22.949,-229.004,-39.551,0
1664548748.954,-37.109,-24.902,-260.742,-20.508,0
1664548748.958,-26.367,-21.484,-344.727,-1.953,0
1664548748.962,-46.387,-14.160,-291.016,-23.438,0
1664548748.965,-66.406,-14.648,-235.840,-59.082,0
1664548748.969,-54.688,-28.809,-287.109,-49.316,0
1664548748.973,-40.039,-35.645,-378.906,-21.973,0
1664548748.977,-54.688,-22.949,-365.234,-23.438,0
1664548748.981,-67.871,-18.066,-367.188,-39.062,0
1664548748.957,-56.641,-17.578,-465.820,-35.645,0
1664548748.961,-52.734,-21.484,-481.934,-31.738,0
1664548748.965,-66.895,-25.879,-441.406,-45.898,0
1664548748.969,-78.613,-21.973,-467.285,-54.199,0
1664548748.973,-85.449,-28.320,-482.422,-50.293,0
1664548748.977,-74.707,-27.832,-486.816,-43.945,0
1664548748.981,-67.383,-20.508,-477.539,-43.945,0
1664548748.984,-77.637,-20.508,-443.359,-59.082,0
1664548748.988,-76.172,-34.668,-520.020,-48.340,0
1664548748.992,-68.359,-34.180,-493.652,-36.133,0
1664548748.996,-69.336,-20.996,-391.602,-60.059,0
1664548749.000,-73.242,-24.414,-471.191,-62.500,0
1664548749.015,-77.637,-24.414,-498.535,-60.059,0
1664548749.019,-69.336,-21.484,-496.582,-53.711,0
1664548749.023,-52.246,-23.438,-508.301,-30.273,0
1664548749.027,-62.988,-28.320,-502.441,-38.086,0
1664548749.031,-80.566,-27.344,-507.324,-55.664,0
1664548749.035,-76.172,-31.738,-526.855,-51.758,0
1664548749.039,-62.988,-34.668,-494.141,-52.246,0
1664548749.042,-54.688,-35.645,-512.695,-47.363,0
1664548749.046,-66.406,-38.086,-522.949,-37.109,0
1664548749.050,-69.824,-27.832,-478.516,-42.480,0
1664548749.054,-50.293,-26.367,-507.812,-31.738,0
1664548749.058,-53.223,-28.809,-517.578,-30.273,0
1664548749.045,-74.707,-30.762,-517.090,-64.453,0
1664548749.049,-74.707,-27.832,-496.582,-73.730,0
1664548749.053,-55.664,-19.043,-510.742,-51.758,0
1664548749.057,-53.711,-19.531,-501.953,-46.875,0
1664548749.061,-66.406,-27.832,-531.250,-48.828,0
1664548749.065,-68.848,-32.715,-534.180,-47.852,0
1664548749.069,-65.430,-32.715,-497.070,-51.270,0
1664548749.072,-56.641,-32.227,-499.512,-48.340,0
1664548749.076,-63.477,-27.832,-489.746,-50.293,0
1664548749.080,-79.102,-25.879,-486.328,-58.594,0
1664548749.084,-70.312,-28.809,-499.512,-60.547,0
1664548749.088,-50.293,-32.715,-517.090,-45.898,0
1664548749.090,-51.758,-26.367,-467.773,-51.270,0
1664548749.094,-65.430,-23.438,-471.191,-64.453,0
1664548749.098,-66.406,-31.250,-500.000,-59.082,0
1664548749.102,-52.246,-35.645,-476.562,-47.852,0
1664548749.106,-49.805,-30.273,-411.133,-53.711,0
1664548749.110,-65.918,-27.344,-466.309,-62.500,0
1664548749.114,-71.289,-26.855,-501.465,-62.012,0
1664548749.117,-53.223,-30.273,-474.121,-43.945,0
1664548749.121,-54.199,-26.855,-397.949,-43.457,0
1664548749.125,-69.336,-28.809,-426.758,-61.035,0
1664548749.129,-72.754,-36.133,-521.484,-59.082,0
1664548749.133,-71.289,-27.832,-498.535,-67.383,0
1664548749.150,-56.641,-19.531,-438.965,-63.965,0
1664548749.154,-42.969,-34.180,-463.379,-42.480,0
1664548749.158,-44.922,-44.922,-502.930,-27.344,0
1664548749.162,-53.711,-30.762,-504.395,-34.180,0
1664548749.166,-77.637,-21.484,-498.047,-75.195,0
1664548749.170,-102.051,-27.832,-503.418,-111.328,0
1664548749.174,-123.535,-29.297,-548.828,-113.770,0
1664548749.177,-153.320,-20.996,-501.465,-128.418,0
1664548749.181,-165.039,-13.672,-407.227,-164.551,0
1664548749.185,-151.855,-20.020,-478.516,-171.875,0
1664548749.189,-157.715,-16.113,-462.402,-169.434,0
1664548749.193,-169.922,-7.812,-402.832,-174.316,0
1664548749.180,-158.203,-7.812,-377.930,-166.992,0
1664548749.184,-137.207,-15.137,-381.836,-144.531,0
1664548749.188,-134.766,-21.484,-394.531,-135.742,0
1664548749.192,-140.137,-19.043,-354.980,-141.602,0
1664548749.196,-124.023,-20.996,-337.891,-133.301,0
1664548749.200,-101.074,-27.344,-356.934,-115.723,0
1664548749.204,-96.191,-25.391,-282.715,-113.770,0
1664548749.207,-110.840,-21.484,-114.258,-117.676,0
1664548749.211,-112.793,-21.973,-20.020,-111.328,0
1664548749.215,-84.961,-25.879,-45.410,-89.355,0
1664548749.219,-70.801,-26.367,-132.812,-61.523,0
1664548749.223,-93.262,-19.043,-3.418,-78.613,0
1664548749.224,-96.191,-20.996,90.820,-98.145,0
1664548749.228,-76.172,-24.414,9.277,-93.262,0
1664548749.232,-62.988,-17.578,-12.695,-86.914,0
1664548749.236,-76.660,-12.207,10.254,-85.449,0
1664548749.240,-91.309,-19.043,4.883,-88.379,0
1664548749.244,-76.660,-28.320,-116.211,-71.777,0
1664548749.248,-65.430,-27.832,-117.188,-68.359,0
1664548749.251,-74.219,-23.926,14.160,-90.820,0
1664548749.255,-77.148,-24.414,-37.598,-89.355,0
1664548749.259,-63.477,-26.855,-174.316,-63.965,0
1664548749.263,-51.758,-24.902,-142.578,-59.082,0
1664548749.267,-57.129,-22.461,-41.016,-75.195,0
1664548749.285,-67.383,-21.973,-97.656,-79.102,0
1664548749.289,-67.871,-23.926,-151.855,-80.078,0
1664548749.293,-55.176,-22.461,-189.941,-70.312,0
1664548749.297,-50.293,-19.531,-217.773,-66.895,0
1664548749.301,-62.988,-26.855,-249.023,-70.801,0
1664548749.305,-72.754,-34.668,-306.641,-69.824,0
1664548749.309,-69.336,-28.320,-284.668,-71.289,0
1664548749.312,-60.547,-27.344,-218.750,-71.777,0
1664548749.316,-62.012,-32.715,-291.016,-65.430,0
1664548749.320,-70.312,-33.203,-367.676,-53.223,0
1664548749.324,-63.965,-27.832,-322.266,-59.082,0
1664548749.328,-55.176,-22.461,-283.691,-72.266,0
1664548749.330,-56.152,-25.879,-338.867,-83.008,0
1664548749.334,-67.383,-30.273,-395.508,-90.820,0
1664548749.338,-66.895,-22.461,-333.008,-83.984,0
1664548749.342,-44.922,-16.602,-368.652,-66.895,0
1664548749.346,-46.387,-20.508,-437.988,-59.570,0
1664548749.350,-59.082,-18.066,-434.082,-64.941,0
1664548749.354,-63.965,-13.184,-420.898,-73.242,0
1664548749.357,-60.547,-13.184,-392.578,-74.707,0
1664548749.361,-38.574,-22.461,-488.281,-52.734,0
1664548749.365,-47.852,-25.879,-487.793,-41.992,0
1664548749.369,-77.148,-20.020,-346.680,-67.383,0
1664548749.373,-71.289,-27.344,-410.156,-74.219,0
1664548749.375,-61.523,-28.809,-457.031,-63.965,0
1664548749.379,-78.125,-28.320,-431.152,-68.359,0
1664548749.383,-94.727,-28.809,-434.570,-82.520,0
1664548749.387,-82.031,-28.809,-458.008,-77.148,0
1664548749.391,-62.988,-30.273,-460.449,-68.359,0
1664548749.395,-62.500,-33.203,-453.125,-68.848,0
1664548749.399,-74.219,-35.156,-440.918,-72.754,0
1664548749.402,-75.195,-31.250,-472.168,-68.848,0
1664548749.406,-61.523,-28.320,-474.609,-52.246,0
1664548749.410,-65.918,-25.391,-365.723,-56.641,0
1664548749.414,-76.660,-32.227,-386.230,-70.801,0
1664548749.418,-74.707,-42.969,-489.746,-74.219,0
1664548749.420,-59.082,-41.504,-479.980,-65.918,0
1664548749.424,-48.340,-40.039,-416.504,-64.941,0
1664548749.428,-64.453,-39.551,-434.082,-71.777,0
1664548749.432,-81.055,-41.016,-477.051,-72.266,0
1664548749.436,-68.848,-38.086,-466.797,-66.895,0
1664548749.440,-58.594,-34.668,-473.633,-57.129,0
1664548749.444,-69.336,-37.109,-453.125,-66.895,0
1664548749.447,-70.312,-41.504,-502.441,-60.059,0
1664548749.451,-66.895,-37.598,-492.188,-44.434,0
1664548749.455,-58.594,-26.855,-409.180,-52.246,0
1664548749.459,-59.570,-28.809,-429.199,-59.082,0
1664548749.463,-83.496,-34.180,-453.613,-73.730,0
1664548749.465,-90.332,-41.504,-458.984,-77.148,0
1664548749.469,-70.801,-43.945,-440.918,-67.871,0
1664548749.473,-46.875,-46.875,-454.102,-42.480,0
1664548749.477,-54.688,-45.410,-452.637,-32.227,0
1664548749.481,-78.125,-35.645,-454.102,-57.129,0
1664548749.485,-77.148,-29.785,-498.047,-71.777,0
1664548749.489,-66.895,-28.320,-497.559,-77.637,0
1664548749.492,-72.266,-30.273,-482.910,-69.824,0
1664548749.496,-90.332,-24.902,-414.062,-74.219,0
1664548749.500,-79.102,-22.461,-418.457,-80.078,0
1664548749.504,-62.500,-30.762,-493.652,-64.453,0
1664548749.508,-73.242,-35.645,-504.883,-64.941,0
1664548749.510,-82.520,-34.180,-457.031,-76.172,0
1664548749.514,-76.660,-33.203,-421.875,-81.055,0
1664548749.518,-59.082,-36.133,-482.910,-69.336,0
1664548749.522,-51.758,-32.227,-486.328,-58.594,0
1664548749.526,-64.941,-29.297,-444.336,-60.059,0
1664548749.530,-67.383,-35.645,-479.492,-62.500,0
1664548749.534,-45.410,-39.551,-521.973,-40.527,0
1664548749.537,-38.574,-32.715,-458.984,-37.109,0
1664548749.541,-55.176,-21.484,-351.074,-71.777,0
1664548749.545,-46.875,-21.973,-395.020,-65.918,0
1664548749.549,-39.551,-27.344,-437.012,-56.641,0
1664548749.553,-43.945,-25.879,-435.547,-61.035,0
1664548749.555,-42.480,-26.855,-424.316,-62.012,0
1664548749.559,-55.664,-31.738,-467.773,-66.895,0
1664548749.563,-60.547,-29.785,-474.609,-57.129,0
1664548749.567,-52.246,-27.344,-423.828,-53.223,0
1664548749.571,-56.152,-31.738,-442.871,-62.500,0
1664548749.575,-66.895,-35.156,-489.258,-66.406,0
1664548749.579,-74.707,-41.992,-479.492,-61.035,0
1664548749.582,-74.707,-37.109,-381.836,-75.195,0
1664548749.586,-69.824,-28.809,-366.211,-89.355,0
1664548749.590,-77.637,-35.645,-448.242,-81.055,0
1664548749.594,-77.637,-45.898,-489.258,-74.707,0
1664548749.598,-73.242,-37.598,-418.457,-73.730,0
1664548749.600,-63.477,-32.227,-366.211,-75.684,0
1664548749.604,-65.918,-39.551,-454.102,-67.871,0
1664548749.608,-78.613,-39.062,-471.191,-66.895,0
1664548749.612,-70.312,-39.062,-421.875,-82.031,0
1664548749.616,-58.105,-41.016,-441.895,-86.914,0
1664548749.620,-58.105,-48.340,-511.719,-71.289,0
1664548749.624,-75.195,-47.852,-482.422,-65.918,0
1664548749.627,-77.637,-40.039,-358.398,-78.613,0
1664548749.631,-55.176,-43.457,-413.086,-71.777,0
1664548749.635,-62.012,-49.805,-452.637,-74.707,0
1664548749.639,-81.543,-49.316,-414.551,-79.590,0
1664548749.643,-77.148,-44.434,-404.297,-71.289,0
1664548749.659,-63.477,-48.340,-431.152,-62.012,0
1664548749.663,-63.965,-52.246,-451.660,-60.547,0
1664548749.667,-78.613,-47.852,-413.574,-66.406,0
1664548749.671,-80.566,-43.457,-396.484,-63.477,0
1664548749.675,-58.105,-46.387,-438.477,-53.711,0
1664548749.679,-54.199,-49.805,-485.352,-51.270,0
1664548749.683,-73.730,-50.781,-466.309,-67.871,0
1664548749.686,-84.961,-44.434,-404.785,-90.332,0
1664548749.690,-74.707,-45.898,-437.012,-85.449,0
1664548749.694,-67.871,-54.688,-462.402,-66.406,0
1664548749.698,-77.148,-44.434,-419.922,-73.242,0
1664548749.702,-80.566,-35.156,-420.898,-83.496,0
1664548749.704,-77.637,-39.062,-441.406,-77.637,0
1664548749.708,-63.965,-40.039,-447.754,-69.824,0
1664548749.712,-67.383,-37.598,-403.809,-72.754,0
1664548749.716,-83.496,-39.551,-421.387,-74.707,0
1664548749.720,-83.496,-42.480,-459.961,-72.754,0
1664548749.724,-66.895,-44.922,-475.098,-62.988,0
1664548749.728,-63.477,-41.016,-424.316,-66.895,0
1664548749.731,-78.613,-37.598,-388.184,-83.984,0
1664548749.735,-63.965,-44.434,-467.773,-57.617,0
1664548749.739,-40.527,-35.645,-460.938,-36.133,0
1664548749.743,-43.457,-24.902,-377.930,-52.246,0
1664548749.747,-64.453,-36.621,-398.438,-69.824,0
1664548749.750,-92.285,-48.340,-443.359,-87.402,0
1664548749.754,-74.219,-44.922,-406.738,-78.125,0
1664548749.758,-53.711,-39.551,-345.215,-62.988,0
1664548749.762,-66.406,-42.969,-394.531,-53.711,0
1664548749.766,-61.035,-42.480,-447.266,-36.621,0
1664548749.770,-54.199,-41.016,-435.547,-41.992,0
1664548749.774,-56.641,-39.551,-403.809,-57.617,0
1664548749.777,-63.477,-36.621,-402.344,-52.246,0
1664548749.781,-78.613,-40.527,-443.848,-40.039,0
1664548749.785,-85.449,-35.645,-346.680,-42.480,0
1664548749.789,-70.801,-37.598,-351.074,-40.039,0
1664548749.793,-62.500,-40.527,-452.148,-42.480,0
1664548749.794,-70.312,-28.320,-411.621,-58.105,0
1664548749.798,-80.078,-25.879,-359.375,-69.824,0
1664548749.802,-68.359,-31.738,-375.977,-68.359,0
1664548749.806,-55.176,-33.203,-417.480,-55.176,0
1664548749.810,-67.383,-32.715,-408.691,-56.152,0
1664548749.814,-69.824,-31.738,-398.438,-57.617,0
1664548749.818,-60.059,-30.273,-393.066,-61.035,0
1664548749.821,-41.504,-33.691,-457.031,-46.875,0
1664548749.825,-42.969,-29.785,-433.594,-32.227,0
1664548749.829,-74.707,-16.602,-267.090,-53.223,0
1664548749.833,-70.312,-22.949,-327.637,-47.363,0
1664548749.837,-57.617,-29.297,-387.695,-42.969,0
1664548749.840,-62.988,-29.785,-370.117,-59.082,0
1664548749.844,-76.172,-35.156,-381.836,-71.289,0
1664548749.848,-85.938,-37.598,-409.180,-68.848,0
1664548749.852,-67.871,-32.715,-361.816,-55.176,0
1664548749.856,-59.082,-31.250,-343.262,-47.852,0
1664548749.860,-72.266,-34.180,-403.320,-49.316,0
1664548749.864,-77.637,-26.367,-390.625,-55.176,0
1664548749.867,-57.617,-26.855,-397.461,-43.457,0
1664548749.871,-53.711,-22.461,-321.777,-51.758,0
1664548749.875,-70.312,-21.973,-272.461,-70.312,0
1664548749.879,-74.219,-32.715,-391.113,-65.918,0
1664548749.883,-68.848,-31.738,-379.883,-55.664,0
1664548749.884,-55.664,-24.414,-297.363,-52.246,0
1664548749.888,-59.082,-23.926,-334.473,-54.688,0
1664548749.892,-74.219,-32.715,-395.508,-53.223,0
1664548749.896,-69.336,-33.203,-415.527,-54.688,0
1664548749.900,-60.059,-25.879,-375.000,-58.594,0
1664548749.904,-64.941,-26.855,-361.328,-60.547,0
1664548749.908,-69.824,-34.668,-445.312,-44.434,0
1664548749.911,-69.336,-32.227,-417.480,-49.316,0
1664548749.915,-68.848,-23.926,-250.977,-80.566,0
1664548749.919,-54.688,-24.414,-255.371,-73.242,0
1664548749.923,-50.293,-27.832,-348.633,-60.059,0
1664548749.927,-64.453,-27.344,-350.098,-63.477,0
1664548749.929,-62.012,-20.508,-290.039,-59.570,0
1664548749.933,-41.504,-18.066,-320.312,-46.387,0
1664548749.937,-59.570,-21.973,-348.145,-55.664,0
1664548749.941,-79.590,-23.438,-315.918,-69.824,0
1664548749.945,-64.453,-21.973,-301.270,-62.988,0
1664548749.949,-53.711,-28.809,-365.723,-48.340,0
1664548749.953,-54.199,-31.250,-432.129,-31.250,0
1664548749.956,-73.730,-21.484,-333.496,-39.551,0
1664548749.960,-83.496,-21.973,-229.492,-66.406,0
1664548749.964,-65.918,-29.297,-316.406,-64.453,0
1664548749.968,-61.523,-32.715,-370.605,-56.641,0
1664548749.972,-84.961,-29.297,-298.828,-65.918,0
1664548749.997,-94.727,-23.926,-257.812,-73.730,0
1664548750.001,-72.754,-25.391,-328.125,-58.594,0
1664548750.005,-52.246,-19.531,-363.281,-43.945,0
1664548750.009,-58.594,-12.695,-295.410,-49.316,0
1664548750.013,-79.102,-19.531,-272.949,-60.547,0
1664548750.017,-70.801,-28.809,-410.645,-44.434,0
1664548750.021,-61.035,-23.438,-408.691,-28.320,0
1664548750.024,-74.707,-18.555,-209.961,-54.199,0
1664548750.028,-78.125,-30.762,-281.250,-63.477,0
1664548750.032,-84.961,-34.668,-365.234,-61.035,0
1664548750.036,-79.102,-23.926,-313.477,-55.664,0
1664548750.040,-71.777,-19.043,-278.320,-52.734,0
1664548750.035,-80.566,-19.531,-308.105,-58.594,0
1664548750.039,-83.496,-20.508,-325.684,-63.965,0
1664548750.043,-67.871,-21.484,-267.578,-59.570,0
1664548750.047,-62.500,-22.461,-255.859,-57.129,0
1664548750.051,-74.707,-27.344,-273.926,-57.129,0
1664548750.055,-74.707,-32.227,-324.219,-45.410,0
1664548750.059,-64.453,-24.414,-286.133,-41.992,0
1664548750.062,-58.105,-23.438,-227.539,-45.898,0
1664548750.066,-60.547,-31.738,-275.879,-59.082,0
1664548750.070,-68.848,-34.668,-369.141,-56.641,0
1664548750.074,-76.660,-24.902,-315.918,-52.246,0
1664548750.078,-62.500,-19.531,-262.207,-47.852,0
1664548750.079,-55.664,-22.461,-303.223,-42.969,0
1664548750.083,-67.871,-17.578,-269.531,-57.617,0
1664548750.087,-63.965,-16.113,-227.539,-60.059,0
1664548750.091,-52.246,-20.020,-248.047,-53.711,0
1664548750.095,-45.898,-22.461,-331.055,-42.480,0
1664548750.099,-53.711,-21.484,-357.910,-43.457,0
1664548750.103,-67.871,-12.695,-245.605,-54.199,0
1664548750.106,-57.617,-13.672,-191.406,-50.293,0
1664548750.110,-41.016,-29.297,-347.168,-36.621,0
1664548750.114,-52.246,-24.414,-362.793,-47.363,0
1664548750.118,-72.266,-11.230,-182.617,-71.289,0
1664548750.122,-60.547,-17.578,-227.051,-56.641,0
1664548750.124,-51.270,-21.973,-295.898,-43.457,0
1664548750.128,-61.035,-15.137,-291.016,-41.992,0
1664548750.132,-69.824,-9.277,-229.980,-40.527,0
1664548750.136,-69.824,-20.020,-251.465,-44.922,0
1664548750.140,-59.570,-29.785,-287.109,-46.875,0
1664548750.144,-59.082,-25.879,-278.809,-47.363,0
1664548750.148,-72.754,-20.020,-272.949,-52.246,0
1664548750.151,-71.289,-20.996,-276.855,-50.781,0
1664548750.155,-54.199,-25.391,-339.355,-31.738,0
1664548750.159,-53.711,-16.113,-242.188,-40.527,0
1664548750.163,-62.500,-16.602,-215.332,-57.617,0
1664548750.167,-67.871,-23.438,-297.852,-52.246,0
1664548750.171,-62.500,-20.508,-254.883,-45.410,0
1664548750.175,-55.176,-14.648,-201.172,-47.363,0
1664548750.179,-61.523,-17.090,-233.398,-56.152,0
1664548750.183,-68.848,-20.996,-329.590,-51.270,0
1664548750.187,-67.871,-19.043,-301.270,-47.852,0
1664548750.191,-55.664,-18.066,-268.066,-41.016,0
1664548750.195,-58.594,-19.043,-279.297,-48.340,0
1664548750.198,-68.359,-23.926,-347.656,-50.293,0
1664548750.202,-62.500,-24.902,-354.492,-37.109,0
1664548750.206,-58.594,-18.066,-188.477,-55.664,0
1664548750.210,-52.734,-17.578,-218.262,-65.430,0
1664548750.214,-55.664,-20.508,-337.402,-56.641,0
1664548750.214,-65.430,-17.578,-296.875,-59.570,0
1664548750.218,-59.082,-17.090,-209.473,-68.848,0
1664548750.222,-52.734,-21.973,-257.324,-64.941,0
1664548750.226,-61.523,-21.484,-297.852,-65.430,0
1664548750.230,-64.453,-20.020,-271.973,-61.035,0
1664548750.234,-50.293,-19.043,-293.945,-45.898,0
1664548750.238,-44.434,-19.531,-296.387,-41.504,0
1664548750.241,-55.664,-25.879,-357.422,-42.480,0
1664548750.245,-74.219,-21.484,-262.695,-66.895,0
1664548750.249,-68.848,-20.508,-137.695,-75.195,0
1664548750.253,-54.688,-32.227,-267.090,-59.082,0
1664548750.257,-62.012,-28.809,-300.293,-57.129,0
1664548750.259,-69.824,-18.066,-230.469,-61.523,0
1664548750.263,-66.406,-25.391,-230.469,-69.336,0
1664548750.267,-54.688,-28.320,-306.152,-64.941,0
1664548750.271,-52.246,-19.531,-337.891,-57.129,0
1664548750.275,-68.848,-21.973,-285.156,-62.988,0
1664548750.279,-71.289,-26.367,-295.410,-68.359,0
1664548750.283,-53.711,-28.809,-378.906,-51.758,0
1664548750.286,-51.758,-34.180,-374.512,-39.062,0
1664548750.290,-69.824,-24.414,-225.098,-59.570,0
1664548750.294,-71.289,-23.926,-206.543,-72.754,0
1664548750.298,-50.293,-21.484,-256.836,-60.547,0
1664548750.302,-41.016,-12.695,-219.727,-50.293,0
1664548750.304,-53.711,-20.020,-197.266,-60.059,0
1664548750.308,-68.848,-27.344,-245.117,-67.871,0
1664548750.312,-67.383,-24.414,-286.133,-62.012,0
1664548750.316,-57.129,-22.949,-253.906,-63.965,0
1664548750.320,-56.641,-23.926,-231.445,-70.801,0
1664548750.324,-69.336,-23.438,-292.480,-70.312,0
1664548750.328,-65.430,-22.461,-377.930,-51.758,0
1664548750.331,-52.734,-9.766,-263.184,-41.504,0
1664548750.335,-52.734,-6.836,-144.043,-51.270,0
1664548750.339,-59.082,-19.043,-235.352,-61.523,0
1664548750.343,-62.500,-24.902,-296.387,-66.895,0
1664548750.347,-40.527,-18.066,-265.137,-45.898,0
1664548750.349,-16.602,-10.254,-225.098,-24.902,0
1664548750.353,-45.898,-20.508,-237.305,-41.504,0
1664548750.357,-93.262,-37.598,-263.672,-70.312,0
1664548750.361,-80.078,-35.156,-202.637,-62.988,0
1664548750.365,-60.547,-31.738,-160.156,-44.922,0
1664548750.369,-68.359,-41.992,-296.387,-34.180,0
1664548750.373,-69.824,-41.992,-332.031,-31.250,0
1664548750.376,-73.730,-32.715,-169.922,-53.711,0
1664548750.380,-67.871,-39.062,-161.621,-52.734,0
1664548750.384,-57.617,-36.621,-224.121,-24.902,0
1664548750.388,-65.430,-29.785,-213.867,-27.344,0
1664548750.392,-66.406,-32.715,-163.574,-49.316,0
1664548750.409,-51.270,-36.133,-222.656,-45.410,0
1664548750.413,-49.805,-35.645,-239.258,-41.992,0
1664548750.417,-62.012,-32.715,-176.270,-46.387,0
1664548750.421,-61.523,-28.320,-173.340,-42.969,0
1664548750.425,-46.875,-32.715,-218.750,-33.691,0
1664548750.429,-35.645,-41.992,-271.484,-30.762,0
1664548750.433,-56.152,-36.133,-218.750,-51.758,0
1664548750.436,-74.707,-31.738,-153.320,-62.988,0
1664548750.440,-58.594,-35.645,-232.910,-47.363,0
1664548750.444,-46.875,-34.180,-328.613,-30.762,0
1664548750.448,-53.223,-26.367,-287.598,-37.109,0
1664548750.452,-56.152,-20.508,-194.824,-46.387,0
1664548750.455,-47.363,-24.414,-215.820,-38.086,0
1664548750.459,-36.621,-31.250,-235.352,-43.457,0
1664548750.463,-48.828,-30.762,-180.176,-59.082,0
1664548750.467,-62.012,-24.902,-229.492,-55.664,0
1664548750.471,-62.988,-25.391,-288.086,-52.734,0
1664548750.475,-54.199,-29.785,-298.828,-41.016,0
1664548750.479,-48.828,-24.902,-235.352,-32.715,0
1664548750.482,-62.500,-26.367,-171.387,-48.828,0
1664548750.486,-66.406,-38.574,-319.824,-45.898,0
1664548750.490,-58.105,-32.227,-335.938,-40.527,0
1664548750.494,-55.664,-20.020,-149.414,-58.105,0
1664548750.498,-59.570,-26.367,-198.730,-50.781,0
1664548750.499,-68.359,-28.320,-248.047,-50.293,0
1664548750.503,-67.383,-23.926,-191.406,-55.176,0
1664548750.507,-64.941,-20.996,-154.785,-54.199,0
1664548750.511,-67.871,-22.461,-196.289,-50.293,0
1664548750.515,-77.148,-20.508,-250.000,-43.945,0
1664548750.519,-75.195,-22.461,-262.207,-41.016,0
1664548750.523,-61.035,-26.855,-230.469,-43.945,0
1664548750.526,-54.688,-23.926,-220.703,-46.875,0
1664548750.530,-65.430,-25.391,-297.363,-37.598,0
1664548750.534,-71.777,-23.926,-229.492,-46.387,0
1664548750.538,-52.246,-24.414,-169.434,-53.223,0
1664548750.542,-45.410,-27.832,-237.305,-49.805,0
1664548750.544,-62.988,-32.715,-213.867,-65.918,0
1664548750.548,-72.754,-32.715,-159.180,-72.266,0
1664548750.552,-60.059,-28.320,-161.133,-64.941,0
1664548750.556,-43.945,-25.391,-222.656,-43.945,0
1664548750.560,-55.664,-26.367,-228.027,-39.551,0
1664548750.564,-72.266,-25.879,-209.473,-60.059,0
1664548750.568,-58.594,-21.973,-222.168,-57.617,0
1664548750.571,-42.969,-31.250,-303.223,-50.781,0
1664548750.575,-55.664,-30.273,-296.875,-54.199,0
1664548750.579,-70.801,-20.996,-121.094,-76.660,0
1664548750.583,-62.500,-25.879,-147.949,-80.078,0
1664548750.587,-47.852,-23.926,-214.844,-68.848,0
1664548750.590,-50.293,-22.949,-184.570,-71.777,0
1664548750.594,-67.383,-21.973,-145.020,-76.172,0
1664548750.598,-68.359,-15.625,-187.988,-62.500,0
1664548750.602,-49.316,-8.301,-191.406,-49.316,0
1664548750.606,-39.551,-7.324,-198.242,-43.945,0
1664548750.610,-50.293,-13.184,-240.234,-46.387,0
1664548750.614,-63.965,-18.555,-236.816,-53.711,0
1664548750.617,-62.988,-20.020,-273.438,-49.805,0
1664548750.621,-62.988,-12.695,-176.758,-69.336,0
1664548750.625,-72.754,-15.137,-117.188,-91.797,0
1664548750.629,-75.684,-22.949,-246.582,-84.961,0
1664548750.633,-69.824,-22.949,-260.254,-69.824,0
1664548750.634,-57.129,-11.230,-135.742,-65.430,0
1664548750.638,-49.805,-10.254,-122.070,-55.664,0
1664548750.642,-68.359,-19.531,-217.285,-56.641,0
1664548750.646,-78.613,-20.996,-213.379,-62.012,0
1664548750.650,-63.477,-18.555,-152.832,-52.246,0
1664548750.654,-57.129,-16.602,-193.848,-50.781,0
1664548750.658,-61.035,-19.531,-307.129,-44.922,0
1664548750.661,-71.289,-24.902,-282.227,-46.387,0
1664548750.665,-68.359,-22.461,-102.051,-68.848,0
1664548750.669,-54.199,-21.973,-128.906,-65.918,0
1664548750.673,-63.965,-22.949,-185.059,-66.895,0
1664548750.677,-76.660,-25.391,-160.645,-71.289,0
1664548750.679,-64.941,-24.414,-188.965,-62.988,0
1664548750.683,-46.387,-22.949,-213.867,-60.547,0
1664548750.687,-58.105,-23.438,-200.195,-65.430,0
1664548750.691,-73.730,-18.066,-175.781,-62.500,0
1664548750.695,-69.336,-18.555,-156.738,-55.664,0
1664548750.699,-52.246,-24.902,-208.984,-46.875,0
1664548750.703,-42.480,-26.367,-333.008,-32.715,0
1664548750.706,-44.922,-16.602,-212.891,-25.879,0
1664548750.710,-37.109,-19.043,-90.332,-20.508,0
1664548750.714,-33.203,-25.391,-184.570,-27.832,0
1664548750.718,-51.270,-18.555,-208.984,-51.270,0
1664548750.722,-81.055,-14.648,-174.805,-84.961,0
1664548750.724,-85.938,-12.207,-159.668,-98.633,0
1664548750.728,-64.453,-10.742,-229.004,-76.660,0
1664548750.732,-65.430,-18.066,-257.812,-73.730,0
1664548750.736,-79.590,-16.113,-205.566,-83.984,0
1664548750.740,-83.008,-13.672,-215.820,-88.867,0
1664548750.744,-70.801,-24.902,-352.051,-74.707,0
1664548750.748,-56.152,-23.926,-351.074,-59.570,0
1664548750.751,-69.824,-16.602,-170.410,-82.520,0
1664548750.755,-79.102,-18.555,-154.297,-77.148,0
1664548750.759,-72.266,-21.973,-227.051,-59.570,0
1664548750.763,-61.035,-24.902,-223.633,-60.059,0
1664548750.767,-53.223,-20.996,-213.379,-61.523,0
1664548750.784,-65.918,-14.160,-190.918,-64.453,0
1664548750.788,-62.988,-12.695,-192.871,-58.105,0
1664548750.792,-52.734,-13.672,-183.105,-60.547,0
1664548750.796,-62.988,-18.555,-143.066,-67.383,0
1664548750.800,-67.871,-24.902,-184.570,-72.754,0
1664548750.804,-62.012,-20.508,-242.188,-64.941,0
1664548750.808,-62.500,-20.020,-234.375,-50.293,0
1664548750.811,-58.594,-23.438,-164.062,-52.246,0
1664548750.815,-56.152,-20.996,-159.668,-56.152,0
1664548750.819,-67.383,-24.414,-267.090,-57.129,0
1664548750.823,-70.312,-24.902,-232.910,-57.617,0
1664548750.827,-60.059,-26.855,-171.387,-56.641,0
1664548750.845,-67.871,-26.855,-195.312,-59.570,0
1664548750.849,-73.242,-25.391,-239.746,-60.547,0
1664548750.853,-69.336,-22.461,-178.711,-59.082,0
1664548750.857,-56.641,-20.020,-136.230,-55.176,0
1664548750.861,-42.480,-23.926,-216.797,-48.340,0
1664548750.865,-52.734,-25.879,-280.762,-39.551,0
1664548750.869,-64.941,-21.973,-195.801,-44.434,0
1664548750.872,-55.664,-26.367,-154.297,-61.523,0
1664548750.876,-47.363,-34.668,-294.922,-56.152,0
1664548750.880,-58.594,-27.832,-294.434,-48.828,0
1664548750.884,-74.219,-13.672,-110.352,-72.754,0
1664548750.888,-56.152,-20.020,-137.207,-72.754,0
1664548750.875,-41.016,-21.973,-198.242,-56.641,0
1664548750.879,-56.152,-17.578,-181.641,-56.152,0
1664548750.883,-71.289,-18.066,-138.672,-66.406,0
1664548750.887,-66.406,-22.461,-138.672,-61.523,0
1664548750.891,-52.734,-28.809,-211.914,-52.734,0
1664548750.895,-54.688,-27.832,-238.770,-55.664,0
1664548750.899,-75.684,-18.555,-172.852,-60.059,0
1664548750.902,-76.172,-20.508,-188.965,-62.012,0
1664548750.906,-58.594,-19.531,-248.047,-58.594,0
1664548750.910,-56.641,-16.602,-207.031,-58.105,0
1664548750.914,-70.312,-27.344,-201.660,-65.430,0
1664548750.918,-74.707,-29.297,-254.395,-67.383,0
1664548750.920,-66.406,-27.344,-254.395,-57.129,0
1664548750.924,-68.848,-24.902,-152.344,-62.012,0
1664548750.928,-74.219,-23.926,-119.629,-71.777,0
1664548750.932,-76.660,-23.438,-177.246,-68.359,0
1664548750.936,-58.105,-14.648,-202.637,-51.758,0
1664548750.940,-42.480,-15.625,-175.781,-42.969,0
1664548750.944,-55.176,-18.066,-145.508,-52.246,0
1664548750.947,-61.035,-18.555,-250.000,-45.898,0
1664548750.951,-59.570,-25.391,-281.250,-38.574,0
1664548750.955,-48.340,-28.809,-80.566,-47.852,0
1664548750.959,-29.297,-32.715,-87.891,-33.203,0
1664548750.963,-49.805,-21.484,-207.520,-39.551,0
1664548750.964,-65.918,-9.277,-228.027,-67.383,0
1664548750.968,-54.688,-6.348,-123.535,-70.801,0
1664548750.972,-49.805,-3.906,-116.211,-70.312,0
1664548750.976,-65.430,-2.441,-173.828,-89.844,0
1664548750.980,-71.289,6.836,-182.617,-97.656,0
1664548750.984,-52.246,16.602,-207.520,-84.473,0
1664548750.988,-41.016,20.020,-220.703,-82.031,0
1664548750.991,-67.871,14.648,-279.297,-92.773,0
1664548750.995,-86.914,27.832,-213.867,-104.492,0
1664548750.999,-75.684,38.574,-123.047,-111.816,0
1664548751.003,-74.707,22.949,-214.844,-112.305,0
1664548751.007,-90.332,19.531,-243.164,-126.953,0
1664548751.010,-102.051,30.762,-159.180,-142.090,0
1664548751.014,-98.633,27.344,-147.949,-140.625,0
1664548751.018,-90.820,17.090,-227.051,-132.324,0
1664548751.022,-99.609,20.020,-229.492,-134.766,0
1664548751.026,-111.328,26.855,-174.316,-132.324,0
1664548751.030,-119.629,20.508,-196.777,-132.324,0
1664548751.034,-123.535,11.719,-287.109,-133.301,0
1664548751.037,-128.906,15.137,-252.930,-146.973,0
1664548751.041,-145.020,20.996,-63.477,-178.711,0
1664548751.045,-140.625,13.184,-111.816,-173.828,0
1664548751.049,-129.395,16.113,-186.523,-161.133,0
1664548751.053,-127.930,21.973,-149.414,-161.133,0
1664548751.054,-127.930,24.414,-125.000,-161.133,0
1664548751.058,-122.559,15.625,-182.129,-147.461,0
1664548751.062,-113.770,5.371,-215.332,-133.789,0
1664548751.066,-106.445,3.418,-173.828,-130.371,0
1664548751.070,-85.938,3.906,-199.707,-110.352,0
1664548751.074,-78.125,-1.953,-250.000,-89.844,0
1664548751.078,-76.172,-12.207,-307.617,-69.336,0
1664548751.081,-76.660,-12.207,-194.336,-70.312,0
1664548751.085,-69.824,-17.090,-129.883,-81.543,0
1664548751.089,-65.430,-20.996,-232.422,-70.312,0
1664548751.093,-70.801,-26.855,-272.949,-61.523,0
1664548751.097,-63.965,-24.414,-178.711,-67.383,0
1664548751.114,-56.152,-20.020,-113.281,-64.453,0
1664548751.118,-55.664,-22.949,-240.234,-52.246,0
1664548751.122,-57.617,-16.113,-265.137,-48.340,0
1664548751.126,-48.828,-18.066,-160.645,-44.922,0
1664548751.130,-31.738,-26.855,-161.133,-36.133,0
1664548751.134,-27.832,-36.621,-315.430,-25.879,0
1664548751.138,-36.621,-41.992,-359.375,-23.438,0
1664548751.141,-40.039,-31.250,-197.266,-31.250,0
1664548751.145,-23.438,-28.320,-163.574,-27.344,0
1664548751.149,-18.555,-32.715,-225.098,-12.207,0
1664548751.153,-31.738,-33.691,-208.496,-12.207,0
1664548751.157,-30.273,-32.715,-169.434,-19.531,0
1664548751.159,-9.277,-30.762,-209.961,-3.906,0
1664548751.163,0.000,-34.668,-240.234,0.000,0
1664548751.167,-11.719,-27.832,-205.078,-5.859,0
1664548751.171,-18.066,-23.926,-188.477,-1.465,0
1664548751.175,-12.695,-30.762,-219.238,1.953,0
1664548751.179,-9.277,-39.062,-251.465,-6.348,0
1664548751.183,-15.625,-34.180,-211.426,-13.184,0
1664548751.186,-23.926,-27.344,-161.133,-9.766,0
1664548751.190,-12.207,-33.691,-215.820,1.953,0
1664548751.194,-0.977,-38.574,-327.637,23.438,0
1664548751.198,-11.719,-36.621,-263.672,8.789,0
1664548751.202,-26.855,-32.715,-155.273,-24.902,0
1664548751.204,-33.691,-35.156,-195.312,-26.367,0
1664548751.208,-18.555,-38.086,-206.055,-18.066,0
1664548751.212,-17.090,-30.762,-145.508,-21.973,0
1664548751.216,-26.855,-31.738,-163.086,-20.996,0
1664548751.220,-15.137,-40.527,-244.629,-9.766,0
1664548751.224,-2.441,-38.086,-286.621,1.953,0
1664548751.228,-12.695,-32.715,-203.613,-11.719,0
1664548751.231,-25.391,-30.273,-127.441,-25.879,0
1664548751.235,-22.949,-41.016,-303.711,-8.301,0
1664548751.239,-21.973,-44.434,-342.285,-4.395,0
1664548751.243,-20.020,-30.762,-115.234,-17.090,0
1664548751.247,-15.137,-35.156,-172.852,-13.184,0
1664548751.249,-23.926,-33.691,-236.328,-12.207,0
1664548751.253,-25.391,-30.762,-158.691,-13.672,0
1664548751.257,-14.648,-31.250,-130.859,-14.648,0
1664548751.261,-16.602,-30.762,-176.270,-16.113,0
1664548751.265,-29.297,-29.297,-202.637,-12.207,0
1664548751.269,-22.949,-24.414,-207.031,-7.324,0
1664548751.273,-16.113,-20.508,-175.293,-17.578,0
1664548751.276,-16.602,-23.926,-133.789,-27.344,0
1664548751.280,-22.949,-34.668,-273.438,-11.230,0
1664548751.284,-35.156,-25.879,-211.914,-20.508,0
1664548751.288,-28.320,-21.973,-120.605,-22.949,0
1664548751.292,-17.578,-25.391,-236.816,-1.953,0
1664548751.295,-25.879,-22.949,-209.473,-11.719,0
1664548751.299,-36.621,-20.508,-145.508,-28.809,0
1664548751.303,-27.832,-21.484,-199.219,-24.902,0
1664548751.307,-24.902,-21.973,-216.309,-13.184,0
1664548751.311,-40.527,-25.879,-175.781,-20.996,0
1664548751.315,-51.270,-29.297,-221.191,-30.273,0
1664548751.319,-43.945,-29.785,-190.430,-31.250,0
1664548751.322,-23.926,-37.109,-232.910,-14.160,0
1664548751.326,-27.344,-29.785,-277.344,-4.395,0
1664548751.330,-52.246,-13.184,-92.773,-31.738,0
1664548751.334,-48.828,-18.066,-109.375,-31.250,0
1664548751.338,-31.738,-21.973,-166.504,-27.344,0
1664548751.340,-29.297,-18.066,-135.254,-35.156,0
1664548751.344,-44.434,-19.043,-112.793,-38.574,0
1664548751.348,-45.410,-28.809,-159.180,-37.109,0
1664548751.352,-31.738,-34.180,-200.195,-24.414,0
1664548751.356,-24.902,-29.297,-186.523,-20.020,0
1664548751.360,-38.086,-29.785,-184.082,-35.156,0
1664548751.364,-45.898,-28.809,-174.316,-39.062,0
1664548751.367,-40.527,-30.273,-226.562,-28.320,0
1664548751.371,-42.480,-34.180,-178.711,-41.992,0
1664548751.375,-51.270,-35.156,-92.285,-50.293,0
1664548751.379,-58.594,-37.109,-193.359,-37.598,0
1664548751.383,-50.781,-32.715,-218.262,-32.227,0
1664548751.385,-37.598,-27.832,-136.230,-31.738,0
1664548751.389,-44.922,-31.250,-135.742,-41.504,0
1664548751.393,-61.035,-34.668,-204.590,-41.992,0
1664548751.397,-57.129,-32.715,-211.914,-39.062,0
1664548751.401,-44.434,-27.344,-158.203,-53.711,0
1664548751.405,-41.992,-30.762,-197.266,-55.176,0
1664548751.409,-52.734,-40.039,-316.406,-53.223,0
1664548751.412,-66.406,-39.062,-299.805,-57.129,0
1664548751.416,-61.523,-25.391,-108.398,-62.012,0
1664548751.420,-49.316,-28.320,-117.188,-55.176,0
1664548751.424,-55.664,-31.250,-183.594,-57.129,0
1664548751.428,-62.988,-22.949,-150.391,-64.941,0
1664548751.430,-55.176,-19.531,-111.328,-51.758,0
1664548751.434,-30.762,-28.809,-140.137,-20.020,0
1664548751.438,-39.062,-33.203,-155.273,-38.086,0
1664548751.442,-65.430,-21.484,-142.090,-70.801,0
1664548751.446,-65.430,-11.230,-143.555,-66.895,0
1664548751.450,-43.457,-7.324,-173.340,-50.293,0
1664548751.454,-36.621,-13.184,-288.574,-36.621,0
1664548751.457,-56.152,-13.184,-204.590,-54.199,0
1664548751.461,-57.129,-13.672,-99.609,-63.965,0
1664548751.465,-42.969,-18.066,-177.734,-52.246,0
1664548751.469,-35.645,-16.113,-208.008,-52.246,0
1664548751.473,-48.828,-13.184,-142.578,-62.988,0
1664548751.474,-57.129,-13.672,-98.145,-62.988,0
1664548751.478,-38.574,-20.508,-189.941,-40.039,0
1664548751.482,-35.156,-19.531,-198.242,-38.086,0
1664548751.486,-58.105,-14.648,-137.695,-60.059,0
1664548751.490,-68.848,-14.160,-119.629,-68.359,0
1664548751.494,-44.434,-20.020,-280.273,-44.434,0
1664548751.498,-38.086,-18.066,-301.270,-34.180,0
1664548751.501,-61.523,-7.324,-71.777,-58.105,0
1664548751.505,-65.918,-19.043,-113.770,-64.941,0
1664548751.509,-62.988,-27.832,-218.262,-62.500,0
1664548751.513,-51.758,-20.020,-173.340,-55.664,0
1664548751.517,-47.852,-15.137,-122.559,-39.062,0
1664548751.535,-61.035,-16.602,-153.809,-44.922,0
1664548751.539,-65.430,-16.113,-172.852,-65.918,0
1664548751.543,-52.246,-14.160,-132.324,-69.336,0
1664548751.547,-51.270,-15.625,-133.789,-60.059,0
1664548751.551,-62.988,-20.020,-153.809,-53.711,0
1664548751.555,-67.871,-23.438,-177.734,-51.270,0
1664548751.559,-56.152,-17.090,-163.574,-48.340,0
1664548751.562,-46.387,-9.277,-104.004,-46.875,0
1664548751.566,-57.617,-19.043,-127.441,-53.223,0
1664548751.570,-59.570,-22.461,-201.172,-56.641,0
1664548751.574,-59.570,-19.043,-172.852,-58.105,0
1664548751.578,-55.176,-17.090,-98.145,-58.105,0
1664548751.580,-46.875,-15.137,-128.906,-42.480,0
1664548751.584,-51.270,-19.531,-194.336,-39.062,0
1664548751.588,-65.430,-20.996,-130.859,-60.059,0
1664548751.592,-62.988,-25.391,-82.520,-64.453,0
1664548751.596,-60.547,-30.762,-167.480,-61.523,0
1664548751.600,-72.266,-33.691,-243.164,-62.988,0
1664548751.604,-73.730,-30.273,-168.457,-65.430,0
1664548751.607,-65.430,-24.902,-90.820,-67.383,0
1664548751.611,-49.805,-37.598,-264.648,-36.133,0
1664548751.615,-64.453,-37.598,-303.223,-16.602,0
1664548751.619,-81.543,-26.367,-112.305,-47.852,0
1664548751.623,-61.035,-26.855,-142.090,-51.270,0
1664548751.625,-62.500,-31.250,-141.602,-60.059,0
1664548751.629,-70.801,-39.062,-106.445,-83.496,0
1664548751.633,-74.707,-38.574,-105.957,-83.008,0
1664548751.637,-73.242,-36.621,-149.902,-73.242,0
1664548751.641,-47.852,-30.273,-182.617,-52.734,0
1664548751.645,-24.902,-22.949,-208.008,-28.320,0
1664548751.649,-45.410,-22.461,-162.598,-37.598,0
1664548751.652,-67.383,-26.367,-114.258,-52.734,0
1664548751.656,-63.965,-38.086,-264.648,-38.086,0
1664548751.660,-79.590,-35.645,-184.570,-46.875,0
1664548751.664,-90.332,-36.621,-80.078,-64.453,0
1664548751.668,-92.285,-46.387,-162.109,-63.965,0
1664548751.669,-94.727,-51.270,-143.066,-58.594,0
1664548751.673,-94.238,-53.223,-90.820,-57.129,0
1664548751.677,-107.910,-61.523,-75.195,-70.312,0
1664548751.681,-118.164,-63.477,-144.043,-71.289,0
1664548751.685,-103.516,-56.641,-171.875,-64.453,0
1664548751.689,-83.008,-55.176,-148.926,-59.570,0
1664548751.693,-81.543,-51.758,-122.070,-60.059,0
1664548751.696,-83.496,-53.711,-210.938,-49.805,0
1664548751.700,-85.449,-53.223,-218.262,-47.363,0
1664548751.704,-83.496,-44.434,-16.113,-66.895,0
1664548751.708,-74.707,-45.898,-62.988,-58.594,0
1664548751.712,-85.449,-47.363,-148.438,-47.852,0
1664548751.714,-92.773,-43.457,-89.355,-45.898,0
1664548751.718,-76.660,-40.039,-63.965,-44.922,0
1664548751.722,-66.895,-43.945,-134.277,-54.688,0
1664548751.726,-70.312,-41.016,-161.133,-58.594,0
1664548751.730,-72.266,-42.480,-116.699,-61.523,0
1664548751.734,-64.941,-46.387,-136.719,-55.176,0
1664548751.738,-54.688,-43.945,-132.812,-43.457,0
1664548751.741,-61.035,-45.898,-204.590,-24.902,0
1664548751.745,-76.172,-35.645,-187.988,-34.668,0
1664548751.749,-71.777,-27.832,-57.129,-57.617,0
1664548751.753,-62.012,-33.691,-108.887,-40.527,0
1664548751.757,-69.336,-37.598,-144.531,-41.504,0
1664548751.759,-77.637,-37.598,-79.102,-73.242,0
1664548751.763,-66.406,-36.133,-74.219,-75.195,0
1664548751.767,-51.270,-37.598,-143.066,-55.176,0
1664548751.771,-47.363,-31.738,-139.160,-47.363,0
1664548751.775,-54.199,-26.855,-107.422,-51.758,0
1664548751.779,-69.336,-35.645,-150.391,-57.617,0
1664548751.783,-59.082,-47.363,-228.516,-43.945,0
1664548751.786,-51.270,-46.875,-235.840,-34.180,0
1664548751.790,-74.707,-35.156,-78.613,-66.406,0
1664548751.794,-83.984,-35.645,-79.102,-73.242,0
1664548751.798,-75.684,-40.527,-164.062,-55.176,0
1664548751.802,-67.871,-40.039,-149.902,-59.570,0
1664548751.804,-75.195,-37.109,-92.285,-77.637,0
1664548751.808,-81.543,-39.062,-107.910,-72.754,0
1664548751.812,-72.266,-39.062,-123.047,-65.430,0
1664548751.816,-59.570,-35.645,-108.398,-70.801,0
1664548751.820,-64.941,-34.668,-89.355,-73.242,0
1664548751.824,-75.195,-35.645,-114.746,-64.941,0
1664548751.828,-66.406,-34.180,-228.027,-33.203,0
1664548751.831,-55.664,-25.391,-126.465,-19.531,0
1664548751.835,-55.176,-20.996,16.602,-40.039,0
1664548751.839,-62.012,-20.996,-57.617,-45.410,0
1664548751.843,-60.547,-22.949,-122.559,-43.945,0
1664548751.847,-55.176,-23.438,-58.594,-57.617,0
1664548751.849,-57.617,-21.484,-1.465,-62.500,0
1664548751.853,-62.500,-27.832,-58.594,-60.547,0
1664548751.857,-79.102,-33.691,-58.105,-73.730,0
1664548751.861,-71.289,-22.461,-15.137,-69.824,0
1664548751.865,-46.875,-18.066,-20.020,-56.152,0
1664548751.869,-48.340,-30.273,-141.113,-45.898,0
1664548751.873,-66.406,-28.809,-146.973,-53.711,0
1664548751.876,-75.195,-18.555,55.664,-80.566,0
1664548751.880,-58.105,-20.508,67.871,-65.918,0
1664548751.884,-54.199,-22.949,-25.391,-48.828,0
1664548751.888,-69.336,-18.555,-7.324,-61.523,0
1664548751.892,-62.012,-17.578,41.016,-62.500,90
1664548752.179,-40.527,-23.926,20.020,-47.363,0
1664548752.183,-38.574,-23.438,12.207,-33.691,0
1664548752.187,-50.781,-20.020,28.809,-41.992,0
1664548752.191,-65.918,-22.949,5.371,-61.035,0
1664548752.195,-62.988,-24.414,-17.578,-63.965,0
1664548752.199,-56.152,-23.926,-48.828,-62.988,0
1664548752.203,-72.754,-23.438,-22.461,-69.336,0
1664548752.206,-79.590,-23.438,36.621,-70.312,0
1664548752.210,-61.523,-27.832,-13.184,-53.711,0
1664548752.214,-44.434,-29.297,-75.195,-40.527,0
1664548752.218,-45.410,-23.926,-28.809,-45.898,0
1664548752.222,-63.965,-22.461,36.621,-58.105,0
1664548752.187,-67.383,-26.367,-20.996,-56.152,0
1664548752.191,-50.293,-26.855,-23.438,-49.316,0
1664548752.195,-44.922,-20.508,10.742,-50.781,0
1664548752.199,-59.570,-19.531,-20.996,-62.500,0
1664548752.203,-62.500,-28.320,-64.453,-54.688,0
1664548752.207,-46.387,-30.273,-113.770,-31.738,0
1664548752.211,-47.852,-26.855,-83.984,-41.504,0
1664548752.214,-60.547,-26.855,-26.855,-60.059,0
1664548752.218,-68.359,-35.645,-136.719,-47.363,0
1664548752.222,-54.688,-29.785,-216.797,-32.227,0
1664548752.226,-49.316,-23.438,-47.363,-48.828,0
1664548752.230,-57.617,-30.762,-41.992,-60.547,0
1664548752.194,-65.430,-32.227,-114.258,-65.918,0
1664548752.198,-60.547,-26.855,-70.801,-58.105,0
1664548752.202,-52.734,-26.367,-69.336,-47.852,0
1664548752.206,-52.246,-31.250,-134.766,-43.457,0
1664548752.210,-63.965,-27.344,-130.859,-49.805,0
1664548752.214,-70.801,-27.344,-165.039,-57.129,0
1664548752.218,-61.523,-26.367,-145.508,-52.734,0
1664548752.221,-54.199,-24.414,-114.258,-49.316,0
1664548752.225,-62.988,-36.621,-267.578,-49.805,0
1664548752.229,-74.219,-32.227,-189.941,-66.895,0
1664548752.233,-62.012,-29.297,-116.211,-63.477,0
1664548752.237,-53.711,-29.297,-184.570,-50.293,0
1664548752.205,-66.406,-22.461,-131.348,-62.012,0
1664548752.209,-78.613,-19.531,-69.824,-64.453,0
1664548752.213,-68.359,-22.461,-53.223,-56.152,0
1664548752.217,-51.758,-21.973,-113.281,-46.875,0
1664548752.221,-57.617,-19.043,-115.234,-48.340,0
1664548752.225,-68.848,-25.879,-119.141,-51.270,0
1664548752.229,-70.312,-29.297,-102.539,-53.223,0
1664548752.232,-58.105,-40.527,-164.062,-39.551,0
1664548752.236,-50.781,-32.715,-194.336,-30.762,0
1664548752.240,-70.312,-20.020,-17.578,-64.941,0
1664548752.244,-67.383,-27.832,-43.457,-58.105,0
1664548752.248,-52.734,-27.344,-119.629,-40.039,0
1664548752.214,-56.152,-26.855,-75.684,-60.547,0
1664548752.218,-68.848,-30.273,-44.922,-73.730,0
1664548752.222,-74.707,-37.598,-87.891,-67.871,0
1664548752.226,-56.641,-31.738,-118.652,-57.129,0
1664548752.230,-43.457,-18.555,-81.055,-48.340,0
1664548752.234,-52.734,-23.438,-113.770,-45.898,0
1664548752.238,-68.848,-30.762,-104.004,-53.223,0
1664548752.241,-60.059,-33.203,-176.270,-37.109,0
1664548752.245,-52.734,-26.855,-113.770,-36.133,0
1664548752.249,-66.895,-23.438,25.879,-57.129,0
1664548752.253,-69.336,-27.832,-91.309,-53.223,0
1664548752.257,-62.012,-24.414,-101.074,-49.805,0
1664548752.225,-53.223,-18.555,-25.391,-48.828,0
1664548752.229,-51.270,-19.531,-37.598,-58.105,0
1664548752.233,-64.453,-23.438,-90.820,-62.500,0
1664548752.237,-64.941,-23.438,-97.656,-55.176,0
1664548752.241,-53.223,-20.020,-50.781,-54.688,0
1664548752.245,-52.246,-25.879,-77.637,-51.270,0
1664548752.249,-57.617,-35.156,-173.828,-43.457,0
1664548752.252,-66.895,-30.762,-199.707,-32.715,0
1664548752.256,-64.941,-21.484,-10.254,-48.340,0
1664548752.260,-47.852,-23.926,6.836,-53.711,0
1664548752.264,-53.711,-22.461,-54.688,-54.199,0
1664548752.268,-60.547,-16.602,-17.090,-64.941,0
1664548752.283,-49.805,-16.602,6.836,-65.430,0
1664548752.287,-37.598,-21.973,-21.973,-50.781,0
1664548752.291,-41.992,-18.555,-63.477,-45.898,0
1664548752.295,-61.523,-19.043,-59.082,-55.664,0
1664548752.299,-53.711,-13.672,-40.527,-45.898,0
1664548752.303,-42.480,-17.090,-64.453,-34.668,0
1664548752.307,-53.711,-26.855,-163.574,-31.250,0
1664548752.310,-68.848,-17.090,-71.777,-47.852,0
1664548752.314,-70.801,-12.695,69.336,-64.453,0
1664548752.318,-55.176,-24.902,16.602,-47.363,0
1664548752.322,-45.898,-30.273,-52.246,-38.086,0
1664548752.326,-56.641,-26.855,-24.902,-54.199,0
1664548752.294,-62.500,-22.949,43.945,-60.547,0
1664548752.298,-59.570,-28.320,7.324,-55.664,0
1664548752.302,-51.758,-29.297,-15.137,-55.664,0
1664548752.306,-52.734,-17.578,31.250,-58.105,0
1664548752.310,-57.617,-19.531,7.324,-53.711,0
1664548752.314,-42.969,-31.738,-117.188,-33.203,0
1664548752.318,-31.738,-29.785,-105.469,-28.809,0
1664548752.321,-45.898,-25.391,46.387,-50.781,0
1664548752.325,-61.523,-24.414,110.352,-64.941,0
1664548752.329,-59.570,-32.227,-2.930,-51.270,0
1664548752.333,-34.180,-26.367,-11.719,-24.414,0
1664548752.337,-23.438,-11.230,114.258,-24.414,0
1664548752.301,-61.035,-19.531,42.969,-47.363,0
1664548752.305,-101.074,-27.344,34.668,-83.496,0
1664548752.309,-106.445,-25.391,65.430,-103.516,0
1664548752.313,-118.652,-26.367,77.148,-123.047,0
1664548752.317,-146.484,-32.715,63.965,-143.066,0
1664548752.321,-155.762,-37.109,-16.113,-141.113,0
1664548752.325,-148.926,-36.133,22.949,-143.066,0
1664548752.328,-143.555,-35.645,63.965,-147.949,0
1664548752.332,-147.949,-43.945,13.184,-149.414,0
1664548752.336,-161.133,-50.293,-32.715,-143.066,0
1664548752.340,-145.996,-37.598,-11.230,-131.836,0
1664548752.344,-111.816,-27.344,65.918,-114.258,0
1664548752.635,-102.051,-31.250,6.348,-102.051,0
1664548752.639,-112.305,-32.715,-32.715,-105.469,0
1664548752.643,-104.492,-27.344,58.594,-95.703,0
1664548752.647,-83.008,-26.367,60.059,-83.984,0
1664548752.651,-79.102,-34.668,-18.555,-82.520,0
1664548752.655,-91.797,-43.457,-76.660,-82.520,0
1664548752.659,-100.098,-35.156,-13.184,-92.773,0
1664548752.662,-83.008,-28.320,57.129,-92.773,0
1664548752.666,-60.547,-36.133,-95.703,-66.406,0
1664548752.670,-68.359,-36.133,-162.598,-59.570,0
1664548752.674,-83.984,-28.809,31.250,-84.473,0
1664548752.678,-76.172,-31.738,54.199,-80.078,0
1664548752.678,-61.523,-25.879,1.953,-59.570,0
1664548752.682,-69.336,-29.297,81.543,-76.172,0
1664548752.686,-71.289,-32.227,11.719,-75.684,0
1664548752.678,-69.824,-23.926,99.121,-51.270,0
1664548752.682,-68.359,-23.926,43.945,-41.016,0
1664548752.686,-63.477,-16.113,238.281,-51.270,0
1664548752.690,-53.223,-20.020,286.621,-51.270,0
1664548752.694,-57.129,-22.461,207.031,-52.734,0
1664548752.682,-58.594,-27.344,103.027,-54.688,0
1664548752.686,-49.316,-22.461,109.863,-50.293,0
1664548752.689,-54.688,-20.020,41.504,-33.203,0
1664548752.693,-69.824,-14.648,104.980,-42.969,0
1664548752.697,-67.383,-9.277,227.051,-59.082,0
1664548752.701,-48.828,-20.996,159.180,-48.340,0
1664548752.705,-56.152,-32.227,125.488,-50.293,0
1664548752.679,-48.828,-25.879,144.043,-58.105,0
1664548752.683,-47.363,-22.461,138.672,-52.246,0
1664548752.687,-63.477,-21.973,172.852,-55.176,0
1664548752.691,-70.801,-19.531,146.973,-62.500,0
1664548752.695,-57.129,-28.320,42.969,-53.223,0
1664548752.698,-46.875,-25.391,36.133,-42.480,0
1664548752.702,-63.965,-8.301,211.914,-59.570,0
1664548752.706,-74.219,-17.578,199.707,-62.012,0
1664548752.710,-61.523,-27.344,54.199,-50.293,0
1664548752.714,-51.758,-22.461,65.918,-49.316,0
1664548752.680,-64.941,-18.555,189.941,-59.570,0
1664548752.684,-72.266,-22.949,123.535,-56.152,0
1664548752.688,-60.059,-20.996,57.129,-51.270,0
1664548752.692,-49.316,-16.602,95.215,-58.105,0
1664548752.696,-52.246,-20.020,114.746,-66.406,0
1664548752.700,-57.617,-27.832,63.965,-63.477,0
1664548752.704,-55.664,-27.344,29.297,-53.711,0
1664548752.707,-53.711,-23.926,94.727,-47.852,0
1664548752.711,-55.176,-16.602,163.574,-53.711,0
1664548752.715,-61.523,-18.066,136.230,-58.594,0
1664548752.719,-69.336,-28.320,45.898,-46.875,0
1664548752.723,-65.918,-21.484,128.906,-51.758,0
1664548752.688,-50.293,-15.625,187.012,-53.223,0
1664548752.692,-56.641,-21.484,109.375,-47.852,0
1664548752.696,-60.547,-19.043,90.332,-47.363,0
1664548752.700,-51.270,-17.090,158.203,-46.387,0
1664548752.704,-43.945,-18.555,145.020,-56.152,0
1664548752.708,-44.922,-26.855,5.859,-55.664,0
1664548752.712,-63.477,-31.250,30.273,-65.430,0
1664548752.715,-69.336,-19.531,201.172,-80.566,0
1664548752.719,-52.734,-19.531,182.617,-64.453,0
1664548752.723,-40.039,-27.344,24.902,-44.922,0
1664548752.727,-49.316,-22.461,28.320,-49.316,0
1664548752.731,-60.547,-18.066,182.617,-59.570,0
1664548752.698,-46.875,-19.531,138.672,-59.082,0
1664548752.702,-42.480,-17.090,59.082,-57.129,0
1664548752.706,-56.641,-18.066,95.215,-59.082,0
1664548752.710,-66.895,-14.648,154.785,-73.730,0
1664548752.714,-58.594,-16.602,93.750,-68.848,0
1664548752.718,-43.945,-15.625,6.836,-47.852,0
1664548752.722,-52.246,-9.766,4.395,-45.898,0
1664548752.725,-64.453,-6.348,82.520,-60.059,0
1664548752.729,-46.875,-7.812,98.145,-50.781,0
1664548752.733,-37.598,-10.742,7.812,-33.691,0
1664548752.737,-48.828,-8.789,37.109,-40.527,0
1664548752.741,-54.199,-8.789,85.449,-50.781,0
1664548752.708,-52.734,-8.789,59.082,-45.898,0
1664548752.712,-44.434,-7.812,74.707,-43.457,0
1664548752.716,-47.852,-8.301,124.512,-58.594,0
1664548752.720,-62.500,-10.254,98.145,-75.684,0
1664548752.724,-54.199,-10.742,-5.371,-62.012,0
1664548752.728,-41.992,-15.137,-63.477,-38.574,0
1664548752.732,-49.316,-14.160,32.227,-45.410,0
1664548752.735,-53.711,-10.254,112.305,-60.059,0
1664548752.739,-55.664,-21.973,-39.062,-41.016,0
1664548752.743,-52.246,-26.855,-87.891,-30.273,0
1664548752.747,-51.758,-8.301,114.746,-54.688,0
1664548752.751,-57.617,-6.836,83.984,-59.082,0
1664548752.750,-67.383,-19.043,17.578,-60.547,0
1664548752.754,-63.477,-17.090,49.805,-61.035,0
1664548752.758,-40.039,-17.090,28.809,-41.016,0
1664548752.762,-41.992,-23.926,-16.113,-35.645,0
1664548752.766,-64.941,-25.879,6.836,-54.199,0
1664548752.770,-60.547,-25.391,9.766,-64.453,0
1664548752.774,-53.223,-22.949,12.695,-66.895,0
1664548752.777,-53.711,-21.973,31.738,-67.383,0
1664548752.781,-57.129,-26.855,-81.543,-46.875,0
1664548752.785,-71.289,-22.461,-31.250,-49.805,0
1664548752.789,-60.059,-21.973,28.809,-57.617,0
1664548752.793,-41.992,-26.367,-71.777,-43.945,0
1664548752.795,-54.688,-25.391,-49.805,-46.387,0
1664548752.799,-71.289,-25.391,18.555,-57.617,0
1664548752.803,-63.965,-31.250,7.812,-62.500,0
1664548752.807,-52.246,-38.574,-32.715,-62.500,0
1664548752.811,-56.152,-40.527,-66.406,-66.895,0
1664548752.815,-66.895,-39.551,-44.922,-71.777,0
1664548752.819,-62.988,-38.086,-20.020,-70.312,0
1664548752.822,-39.551,-39.062,-115.234,-44.922,0
1664548752.826,-41.016,-36.621,-95.215,-41.016,0
1664548752.830,-62.988,-22.461,73.242,-63.477,0
1664548752.834,-57.617,-21.973,50.781,-51.270,0
1664548752.838,-46.875,-24.902,-21.484,-41.504,0
1664548752.840,-52.734,-25.879,-7.812,-55.664,0
1664548752.844,-68.359,-31.738,8.301,-63.477,0
1664548752.848,-69.336,-28.320,-36.133,-48.828,0
1664548752.852,-61.035,-22.461,-64.453,-43.945,0
1664548752.856,-52.246,-21.484,-44.922,-46.387,0
1664548752.860,-61.523,-20.996,-38.086,-50.293,0
1664548752.864,-77.148,-23.438,-39.062,-59.082,0
1664548752.867,-44.434,-29.785,-159.180,-25.879,0
1664548752.871,-24.902,-19.043,-88.379,-14.648,0
1664548752.875,-55.176,-13.672,63.965,-50.781,0
1664548752.879,-77.637,-23.438,-54.199,-67.871,0
1664548752.883,-89.844,-20.508,-94.727,-77.637,0
1664548752.885,-98.633,-17.578,5.371,-91.309,0
1664548752.889,-103.516,-21.973,28.809,-101.074,0
1664548752.893,-116.699,-27.344,-63.965,-101.074,0
1664548752.897,-121.582,-28.809,-78.613,-96.191,0
1664548752.901,-108.398,-31.738,-36.133,-94.238,0
1664548752.905,-93.750,-34.668,-68.848,-87.891,0
1664548752.909,-97.168,-33.691,-153.809,-74.219,0
1664548752.912,-94.238,-30.273,-154.785,-65.918,0
1664548752.916,-83.008,-20.020,1.953,-80.078,0
1664548752.920,-69.336,-22.461,-40.039,-80.078,0
1664548752.924,-67.383,-25.391,-95.215,-73.242,0
1664548752.928,-77.148,-23.438,-45.410,-70.312,0
1664548752.929,-61.523,-14.160,-6.836,-58.105,0
1664548752.933,-46.387,-18.066,-45.410,-44.434,0
1664548752.937,-52.246,-23.926,-99.121,-46.387,0
1664548752.941,-65.918,-21.484,-77.637,-54.688,0
1664548752.945,-64.453,-18.066,-36.133,-47.363,0
1664548752.949,-45.898,-17.090,-83.008,-30.762,0
1664548752.953,-42.969,-20.996,-133.789,-27.832,71
1664548752.956,-62.988,-17.578,-46.387,-46.387,0
1664548752.960,-66.406,-12.695,18.555,-55.176,0
1664548752.964,-47.852,-19.531,-41.016,-44.434,0
1664548752.968,-42.480,-26.367,-116.699,-37.598,0
1664548752.972,-58.594,-19.043,-76.660,-48.828,0
1664548752.975,-66.895,-21.973,-33.691,-54.199,0
1664548752.979,-48.340,-23.438,-49.316,-36.133,0
1664548752.983,-34.668,-19.043,-55.176,-29.785,0
1664548752.987,-50.781,-18.066,-19.043,-45.898,0
1664548752.991,-64.941,-22.461,-62.012,-54.688,0
1664548752.995,-53.711,-25.879,-171.387,-38.574,0
1664548752.999,-47.363,-23.438,-154.785,-25.391,0
1664548753.002,-55.664,-22.461,6.836,-44.434,0
1664548753.006,-62.500,-29.297,-10.742,-53.223,0
1664548753.010,-56.152,-32.227,-130.371,-42.480,0
1664548753.014,-48.828,-29.785,-91.309,-35.156,0
1664548753.018,-56.641,-32.715,-41.016,-49.316,0
1664548753.036,-64.941,-39.551,-75.195,-57.617,0
1664548753.040,-68.359,-35.645,-87.891,-57.617,0
1664548753.044,-61.523,-30.273,-96.191,-54.199,0
1664548753.048,-54.199,-31.738,-62.988,-48.340,0
1664548753.052,-64.453,-33.691,-58.105,-49.316,0
1664548753.056,-73.730,-38.086,-125.977,-44.922,0
1664548753.060,-66.895,-32.715,-100.098,-41.992,0
1664548753.063,-60.547,-25.879,-9.277,-47.363,0
1664548753.067,-60.547,-34.180,-55.176,-57.617,0
1664548753.071,-59.570,-35.156,-157.227,-52.246,0
1664548753.075,-53.711,-27.344,-115.234,-43.457,0
1664548753.079,-44.922,-30.273,-38.086,-51.270,0
1664548753.080,-33.691,-32.715,-79.590,-45.898,0
1664548753.084,-42.969,-30.762,-123.535,-44.434,0
1664548753.088,-54.688,-31.250,-58.594,-54.199,0
1664548753.092,-36.133,-27.832,-52.734,-42.969,0
1664548753.096,-30.762,-24.414,-131.836,-33.203,0
1664548753.100,-42.480,-22.949,-142.578,-36.133,0
1664548753.104,-46.387,-21.484,-136.230,-51.270,0
1664548753.107,-45.410,-21.973,-90.332,-62.988,0
1664548753.111,-38.574,-30.762,-159.668,-46.875,0
1664548753.115,-47.363,-35.645,-249.512,-35.156,0
1664548753.119,-67.871,-22.949,-42.969,-53.711,0
1664548753.123,-56.152,-20.020,-47.852,-43.945,0
1664548753.125,-38.574,-17.090,-118.652,-40.039,0
1664548753.129,-48.340,-14.160,-93.750,-56.641,0
1664548753.133,-64.941,-17.578,-76.172,-65.430,0
1664548753.137,-67.383,-22.949,-78.613,-63.965,0
1664548753.141,-57.617,-28.320,-122.070,-53.223,0
1664548753.145,-59.082,-31.738,-164.551,-47.363,0
1664548753.149,-75.684,-32.715,-151.855,-51.270,0
1664548753.152,-73.242,-29.297,-129.395,-53.223,0
1664548753.156,-61.035,-36.621,-215.820,-42.480,0
1664548753.160,-66.895,-42.969,-160.156,-48.828,0
1664548753.164,-77.637,-42.480,-98.145,-65.918,0
1664548753.168,-81.543,-42.969,-155.273,-69.824,0
1664548753.170,-72.266,-38.574,-121.582,-68.848,0
1664548753.174,-62.012,-31.738,-63.477,-66.406,0
1664548753.178,-65.918,-34.668,-73.730,-73.242,0
1664548753.182,-72.754,-41.016,-159.668,-68.359,0
1664548753.186,-63.477,-41.504,-168.457,-62.988,0
1664548753.190,-47.852,-35.645,-156.738,-60.547,0
1664548753.194,-53.711,-24.414,-95.703,-66.406,0
1664548753.197,-68.848,-31.738,-153.809,-61.523,0
1664548753.201,-76.172,-37.109,-250.977,-51.270,0
1664548753.205,-67.871,-27.832,-94.727,-61.523,0
1664548753.209,-58.105,-30.273,-69.824,-64.453,0
1664548753.213,-75.195,-32.715,-125.488,-68.359,0
1664548753.215,-83.496,-31.250,-103.027,-70.312,0
1664548753.219,-74.707,-34.180,-65.918,-68.359,0
1664548753.223,-66.895,-39.551,-98.145,-59.082,0
1664548753.227,-69.824,-32.715,-131.836,-54.688,0
1664548753.231,-79.102,-33.203,-129.395,-62.500,0
1664548753.235,-64.941,-44.434,-182.617,-57.617,0
1664548753.239,-55.176,-39.551,-171.875,-60.547,0
1664548753.242,-64.941,-30.273,-228.027,-47.852,0
1664548753.246,-77.148,-25.879,-177.246,-52.246,0
1664548753.250,-80.566,-25.879,-33.203,-78.125,0
1664548753.254,-63.965,-37.598,-138.672,-65.918,0
1664548753.258,-65.430,-40.039,-203.613,-64.941,0
1664548753.312,-79.590,-29.297,-115.723,-80.078,0
1664548753.316,-72.266,-24.902,-74.219,-78.125,0
1664548753.320,-60.059,-29.785,-143.066,-62.988,0
1664548753.324,-60.547,-23.926,-161.621,-61.523,0
1664548753.328,-76.660,-25.391,-121.582,-76.660,0
1664548753.332,-83.496,-32.227,-143.066,-82.031,0
1664548753.336,-66.895,-35.156,-211.914,-67.383,0
1664548753.339,-62.012,-36.133,-232.422,-61.035,0
1664548753.343,-78.613,-24.902,-82.031,-70.801,0
1664548753.347,-84.961,-25.879,-50.293,-71.777,0
1664548753.351,-78.613,-28.809,-143.555,-66.406,0
1664548753.355,-64.453,-21.973,-124.023,-65.430,0
1664548753.323,-59.570,-18.555,-65.430,-66.895,0
1664548753.327,-69.336,-26.855,-134.277,-58.105,0
1664548753.331,-71.777,-32.715,-156.250,-59.082,0
1664548753.335,-65.430,-27.344,-64.453,-67.871,0
1664548753.339,-62.988,-29.297,-78.125,-66.895,0
1664548753.343,-64.941,-30.762,-164.062,-62.500,0
1664548753.347,-58.105,-25.391,-258.301,-42.480,0
1664548753.350,-45.410,-13.672,-141.113,-39.551,0
1664548753.354,-46.387,-17.090,28.320,-51.758,0
1664548753.358,-58.105,-30.762,-100.586,-47.852,0
1664548753.362,-64.453,-34.180,-215.332,-56.152,0
1664548753.366,-60.059,-27.832,-110.352,-69.336,0
1664548753.350,-58.594,-24.902,-52.734,-70.801,0
1664548753.354,-57.129,-24.414,-157.227,-58.594,0
1664548753.358,-64.453,-21.484,-153.809,-60.059,0
1664548753.362,-65.430,-21.484,-87.402,-64.453,0
1664548753.366,-45.898,-21.973,-112.793,-54.688,0
1664548753.370,-44.434,-26.855,-208.496,-44.922,0
1664548753.374,-65.430,-27.344,-205.078,-54.688,0
1664548753.377,-68.359,-21.973,-62.012,-74.707,0
1664548753.381,-54.688,-28.320,-85.449,-64.453,0
1664548753.385,-59.570,-34.180,-175.781,-54.199,0
1664548753.389,-70.312,-31.738,-140.137,-61.523,0
1664548753.393,-74.707,-31.250,-69.824,-68.359,0
1664548753.412,-61.523,-32.715,-94.727,-50.293,0
1664548753.416,-49.316,-34.180,-120.605,-43.945,0
1664548753.420,-64.941,-29.785,-86.914,-62.500,0
1664548753.424,-73.242,-19.531,-79.590,-64.453,0
1664548753.428,-62.500,-20.996,-118.652,-61.035,0
1664548753.432,-57.129,-34.668,-180.664,-54.199,0
1664548753.436,-63.965,-32.715,-189.941,-54.688,0
1664548753.439,-66.895,-25.391,-126.953,-61.523,0
1664548753.443,-56.152,-24.902,-87.402,-60.059,0
1664548753.447,-40.527,-27.832,-217.773,-42.969,0
1664548753.451,-46.875,-23.438,-205.078,-41.016,0
1664548753.455,-67.871,-19.043,-60.059,-50.293,0
1664548753.454,-68.359,-24.414,-94.727,-47.363,0
1664548753.458,-58.105,-24.902,-93.750,-44.922,0
1664548753.462,-55.664,-23.926,-19.043,-53.711,0
1664548753.466,-63.965,-24.414,-62.500,-60.547,0
1664548753.470,-73.242,-31.250,-153.320,-63.965,0
1664548753.474,-58.105,-36.133,-201.172,-56.641,0
1664548753.478,-52.246,-28.320,-130.371,-59.082,0
1664548753.481,-66.406,-22.461,-38.574,-71.289,0
1664548753.485,-65.430,-33.691,-194.336,-51.758,0
1664548753.489,-68.848,-41.016,-245.605,-39.551,0
1664548753.493,-77.148,-28.809,-34.668,-55.664,0
1664548753.497,-74.707,-31.250,-59.570,-61.523,0
1664548753.499,-75.684,-31.250,-158.691,-56.152,0
1664548753.503,-71.777,-23.926,-108.887,-56.641,0
1664548753.507,-48.828,-29.785,-74.219,-47.363,0
1664548753.511,-25.391,-39.551,-125.977,-28.320,0
1664548753.515,-43.945,-41.016,-133.301,-36.133,0
1664548753.519,-74.219,-31.738,-141.113,-53.223,0
1664548753.523,-74.707,-20.996,-151.367,-59.082,0
1664548753.526,-52.246,-20.020,-113.281,-55.176,0
1664548753.530,-42.969,-23.438,-181.641,-33.203,0
1664548753.534,-46.875,-17.578,-145.508,-35.156,0
1664548753.538,-42.969,-17.090,-61.523,-52.246,0
1664548753.542,-35.645,-21.973,-123.047,-43.945,0
1664548753.544,-40.527,-23.926,-116.699,-36.133,0
1664548753.548,-54.688,-22.461,-42.969,-48.828,0
1664548753.552,-46.875,-20.508,-42.969,-52.246,0
1664548753.556,-31.738,-25.391,-127.441,-36.133,0
1664548753.560,-36.621,-28.320,-139.160,-34.668,0
1664548753.564,-49.316,-27.832,-137.207,-34.668,0
1664548753.568,-53.711,-24.902,-83.984,-41.504,0
1664548753.571,-38.574,-31.738,-161.133,-33.691,0
1664548753.575,-36.621,-35.156,-228.027,-23.926,0
1664548753.579,-50.293,-20.020,-24.902,-43.945,0
1664548753.583,-46.875,-23.926,-31.738,-38.574,0
1664548753.587,-33.691,-30.762,-113.281,-27.344,0
1664548753.589,-30.273,-27.832,-95.215,-32.715,0
1664548753.593,-44.922,-29.785,-108.398,-40.527,0
1664548753.597,-49.316,-31.250,-116.211,-34.180,0
1664548753.601,-41.992,-29.297,-81.543,-36.621,0
1664548753.605,-33.203,-29.297,-79.590,-40.039,0
1664548753.609,-29.785,-25.879,-107.422,-26.855,0
1664548753.613,-41.504,-20.996,-101.074,-31.250,0
1664548753.616,-35.645,-25.879,-197.754,-32.227,0
1664548753.620,-30.762,-17.578,-116.211,-37.109,0
1664548753.624,-44.922,-13.672,23.926,-55.176,0
1664548753.628,-52.246,-29.297,-118.164,-51.270,0
1664548753.632,-48.828,-23.438,-135.742,-46.387,0
1664548753.634,-50.293,-11.719,-36.621,-54.199,0
1664548753.638,-49.805,-16.113,-42.480,-60.059,0
1664548753.642,-56.641,-19.043,-120.605,-55.176,0
1664548753.646,-66.406,-17.090,-167.969,-54.199,0
1664548753.650,-51.758,-12.695,-108.398,-54.688,0
1664548753.654,-39.551,-8.789,-86.426,-57.617,0
1664548753.658,-54.199,-15.625,-196.777,-56.152,0
1664548753.661,-63.477,-18.066,-216.797,-51.758,0
1664548753.665,-60.059,-9.277,-42.480,-64.941,0
1664548753.669,-49.316,-18.066,-43.457,-62.988,0
1664548753.673,-54.688,-23.926,-136.719,-57.129,0
1664548753.677,-59.570,-18.555,-95.215,-62.988,0
1664548753.679,-49.805,-20.020,-62.500,-55.176,0
1664548753.683,-39.551,-17.578,-113.281,-39.551,0
1664548753.687,-44.922,-15.137,-127.930,-41.016,0
1664548753.691,-58.594,-16.602,-91.797,-49.316,0
1664548753.695,-58.105,-21.484,-88.379,-49.316,0
1664548753.699,-43.945,-21.973,-132.324,-41.992,0
1664548753.703,-32.227,-25.879,-235.840,-24.414,0
1664548753.706,-58.594,-23.438,-165.527,-39.062,0
1664548753.710,-67.383,-20.020,-7.812,-69.336,0
1664548753.714,-48.828,-32.715,-106.934,-62.988,0
1664548753.718,-50.293,-32.715,-163.086,-48.828,0
1664548753.722,-62.012,-24.414,-96.191,-52.734,0
1664548753.724,-71.777,-20.508,-31.738,-73.242,0
1664548753.728,-60.059,-18.555,-97.168,-67.871,0
1664548753.732,-43.945,-17.578,-125.977,-52.246,0
1664548753.736,-56.641,-16.602,-66.895,-55.664,0
1664548753.740,-70.801,-17.090,-69.824,-61.035,0
1664548753.744,-60.059,-32.227,-211.426,-51.270,0
1664548753.748,-54.199,-32.227,-215.332,-48.828,0
1664548753.751,-67.383,-21.973,-55.176,-72.754,0
1664548753.755,-78.613,-27.832,-102.539,-78.613,0
1664548753.759,-77.637,-30.762,-163.574,-66.895,0
1664548753.763,-55.176,-23.926,-127.930,-49.805,0
1664548753.767,-48.828,-20.020,-83.008,-47.852,0
1664548753.785,-62.988,-22.461,-131.836,-59.082,0
1664548753.789,-68.359,-24.902,-138.184,-63.477,0
1664548753.793,-49.805,-25.879,-92.285,-53.711,0
1664548753.797,-30.273,-16.113,-86.426,-38.086,0
1664548753.801,-41.016,-16.602,-132.324,-44.922,0
1664548753.805,-71.289,-31.250,-175.781,-62.500,0
1664548753.809,-77.148,-25.879,-107.910,-65.430,0
1664548753.812,-62.988,-18.555,-47.363,-61.523,0
1664548753.816,-61.035,-24.414,-74.219,-64.453,0
1664548753.820,-68.848,-30.762,-168.457,-59.570,0
1664548753.824,-73.242,-28.809,-152.832,-62.500,0
1664548753.828,-57.617,-22.461,-89.844,-58.105,0
1664548753.830,-46.875,-24.902,-131.836,-41.504,0
1664548753.834,-64.453,-31.250,-112.793,-43.457,0
1664548753.838,-68.848,-30.762,-50.781,-61.523,0
1664548753.842,-52.734,-28.320,-40.527,-63.965,0
1664548753.846,-54.199,-34.668,-74.707,-53.711,0
1664548753.850,-64.453,-39.062,-128.418,-54.199,0
1664548753.854,-73.242,-35.645,-79.102,-60.059,0
1664548753.857,-64.941,-29.297,-19.043,-56.152,0
1664548753.861,-47.363,-30.762,-178.223,-28.809,0
1664548753.865,-59.570,-34.180,-229.980,-26.855,0
1664548753.869,-75.195,-26.855,-48.340,-56.152,0
1664548753.873,-70.801,-32.227,-28.809,-47.852,0
1664548753.874,-65.430,-40.039,-95.703,-36.133,0
1664548753.878,-62.988,-33.203,-133.301,-32.227,0
1664548753.882,-72.266,-26.855,-56.152,-41.016,0
1664548753.886,-64.453,-34.180,-70.801,-56.641,0
1664548753.890,-48.828,-41.504,-129.883,-62.012,0
1664548753.894,-49.316,-40.039,-145.996,-52.246,0
1664548753.898,-56.641,-30.762,-98.633,-52.246,0
1664548753.901,-62.988,-28.320,-58.594,-57.617,0
1664548753.905,-53.711,-32.715,-119.141,-51.758,0
1664548753.909,-51.270,-27.832,-85.449,-50.293,0
1664548753.913,-66.895,-26.855,-79.102,-50.293,0
1664548753.917,-70.801,-29.785,-124.023,-53.711,0
1664548753.918,-61.035,-32.227,-136.719,-50.781,0
1664548753.922,-61.523,-29.297,-67.871,-53.223,0
1664548753.926,-66.895,-30.273,-50.293,-52.734,0
1664548753.930,-76.660,-34.180,-146.484,-42.969,0
1664548753.934,-73.242,-35.156,-166.504,-47.852,0
1664548753.938,-55.176,-29.297,-138.672,-49.805,0
1664548753.942,-61.035,-23.438,-102.051,-62.012,0
1664548753.945,-70.801,-34.180,-184.570,-66.895,0
1664548753.949,-72.754,-39.062,-210.938,-59.082,0
1664548753.953,-73.242,-27.832,-9.766,-68.848,0
1664548753.957,-66.895,-32.715,-20.996,-60.547,0
1664548753.961,-75.195,-36.621,-134.277,-49.805,0
1664548753.964,-79.102,-31.738,-105.469,-44.434,0
1664548753.968,-68.848,-30.273,-41.016,-47.852,0
1664548753.972,-58.105,-31.250,-89.844,-53.223,0
1664548753.976,-68.848,-31.250,-137.207,-60.547,0
1664548753.980,-76.660,-31.738,-117.188,-59.570,0
1664548753.984,-64.453,-33.691,-142.090,-46.875,0
1664548753.988,-61.523,-31.250,-150.391,-46.387,0
1664548753.991,-62.012,-32.715,-191.406,-41.992,0
1664548753.995,-66.895,-27.832,-122.070,-54.688,0
1664548753.999,-69.336,-28.320,-12.207,-73.242,0
1664548754.003,-47.852,-33.691,-118.652,-58.105,0
1664548754.007,-49.316,-33.203,-173.828,-53.223,0
1664548754.009,-74.219,-32.715,-64.941,-68.359,0
1664548754.013,-66.895,-30.273,-26.855,-66.895,0
1664548754.017,-47.363,-31.738,-137.695,-55.664,0
1664548754.021,-47.852,-29.785,-140.625,-56.152,0
1664548754.025,-56.641,-23.926,-79.590,-60.059,0
1664548754.029,-61.035,-26.855,-131.836,-69.336,0
1664548754.033,-55.176,-39.062,-208.496,-65.430,0
1664548754.036,-46.387,-37.109,-236.328,-43.457,0
1664548754.040,-58.105,-25.879,-117.188,-51.270,0
1664548754.044,-65.430,-27.832,-60.059,-58.105,0
1664548754.048,-37.109,-33.203,-105.957,-39.062,0
1664548754.052,-14.648,-24.414,-107.910,-31.250,0
1664548754.055,-40.527,-16.113,-61.035,-54.688,0
1664548754.059,-83.008,-24.902,-56.152,-89.844,0
1664548754.063,-92.773,-28.320,-117.676,-100.586,0
1664548754.067,-87.891,-25.391,-105.469,-100.098,0
1664548754.071,-86.426,-29.785,-90.820,-95.703,0
1664548754.075,-92.773,-27.344,-156.250,-89.844,0
1664548754.079,-96.191,-27.344,-254.883,-81.543,0
1664548754.082,-89.355,-24.902,-173.340,-86.426,0
1664548754.086,-86.914,-19.043,-23.926,-104.004,0
1664548754.090,-80.078,-22.949,-120.117,-90.332,0
1664548754.094,-79.102,-27.344,-184.570,-73.242,0
1664548754.098,-71.777,-22.949,-103.516,-62.012,0
1664548754.099,-63.965,-21.973,-30.762,-61.523,0
1664548754.103,-72.266,-29.297,-101.562,-61.035,0
1664548754.107,-80.566,-27.344,-150.391,-66.895,0
1664548754.111,-71.289,-24.414,-62.988,-75.684,0
1664548754.115,-52.734,-27.832,-55.176,-62.012,0
1664548754.119,-44.922,-31.738,-201.660,-44.434,0
1664548754.123,-62.988,-32.227,-220.215,-53.711,0
1664548754.126,-71.289,-19.531,-57.617,-67.383,0
1664548754.130,-54.688,-15.625,-47.852,-53.711,0
1664548754.134,-53.711,-24.414,-130.371,-48.340,0
1664548754.138,-72.266,-28.809,-155.273,-59.570,0
1664548754.142,-75.195,-27.344,-110.840,-60.547,0
1664548754.159,-53.711,-24.902,-108.887,-44.922,0
1664548754.163,-49.805,-23.926,-126.465,-41.504,0
1664548754.167,-62.012,-20.020,-76.660,-57.129,0
1664548754.171,-60.547,-18.555,-66.895,-62.500,0
1664548754.175,-48.828,-20.996,-115.234,-51.758,0
1664548754.179,-45.410,-27.344,-158.203,-43.457,0
1664548754.183,-58.594,-23.926,-109.375,-45.410,0
1664548754.186,-72.754,-15.625,-39.551,-58.105,0
1664548754.190,-69.824,-24.902,-77.148,-55.176,0
1664548754.194,-55.664,-29.297,-176.758,-42.480,0
1664548754.198,-54.199,-20.996,-153.320,-48.340,0
1664548754.202,-60.547,-20.020,-82.520,-60.059,0
1664548754.204,-61.523,-24.414,-88.867,-57.617,0
1664548754.208,-49.316,-26.855,-101.562,-51.758,0
1664548754.212,-53.711,-28.320,-119.629,-48.340,0
1664548754.216,-65.918,-32.227,-147.461,-50.781,0
1664548754.220,-68.848,-32.227,-166.504,-58.594,0
1664548754.224,-63.477,-30.273,-173.340,-49.316,0
1664548754.228,-61.035,-23.926,-100.586,-47.852,0
1664548754.231,-69.336,-22.461,-44.922,-58.594,0
1664548754.235,-73.242,-33.691,-185.547,-51.270,0
1664548754.239,-72.266,-31.250,-232.910,-42.480,0
1664548754.243,-65.430,-16.602,-16.113,-60.547,0
1664548754.247,-63.965,-24.902,-50.781,-68.848,0
1664548754.249,-70.801,-26.855,-144.043,-65.430,0
1664548754.253,-68.848,-17.578,-89.355,-58.594,0
1664548754.257,-56.641,-18.555,-68.359,-53.223,0
1664548754.261,-52.734,-21.484,-114.746,-50.293,0
1664548754.265,-66.406,-23.926,-162.598,-50.293,0
1664548754.269,-70.801,-20.020,-160.645,-53.223,0
1664548754.273,-62.988,-18.066,-133.301,-56.641,0
1664548754.276,-58.105,-20.996,-113.770,-59.082,0
1664548754.280,-69.336,-27.832,-187.988,-56.152,0
1664548754.284,-80.566,-28.320,-134.766,-64.941,0
1664548754.288,-67.871,-24.902,-49.316,-73.242,0
1664548754.292,-55.664,-31.250,-114.258,-67.383,0
1664548754.295,-61.523,-24.414,-83.496,-64.453,0
1664548754.299,-67.383,-14.648,-44.922,-62.500,0
1664548754.303,-60.547,-19.043,-56.152,-62.988,0
1664548754.307,-48.340,-28.809,-109.863,-57.129,0
1664548754.311,-51.270,-30.762,-136.719,-58.594,0
1664548754.315,-70.801,-31.250,-142.578,-66.406,0
1664548754.319,-67.871,-23.926,-83.008,-62.988,0
1664548754.322,-40.039,-29.785,-157.715,-37.598,0
1664548754.326,-41.016,-37.109,-222.656,-26.367,0
1664548754.330,-71.777,-22.461,-37.598,-61.035,0
1664548754.334,-74.219,-22.461,-52.246,-78.613,0
1664548754.338,-54.688,-23.926,-144.043,-72.266,0
1664548754.339,-50.293,-19.531,-121.582,-67.871,0
1664548754.343,-60.059,-19.531,-77.637,-71.777,0
1664548754.347,-58.105,-26.367,-122.559,-73.242,0
1664548754.351,-50.781,-27.344,-128.906,-64.941,0
1664548754.355,-41.016,-24.414,-105.957,-49.316,0
1664548754.359,-40.039,-30.762,-140.625,-48.828,0
1664548754.363,-62.012,-30.762,-100.098,-63.477,0
1664548754.366,-53.223,-30.273,-176.758,-46.387,0
1664548754.370,-40.039,-24.414,-129.883,-39.062,0
1664548754.374,-47.363,-18.066,-12.695,-55.176,0
1664548754.378,-50.781,-19.043,-124.512,-42.480,0
1664548754.382,-54.688,-18.066,-132.812,-38.574,0
1664548754.387,-49.316,-14.160,-40.039,-39.062,0
1664548754.391,-48.340,-14.648,-20.020,-31.250,0
1664548754.395,-52.246,-15.137,-103.516,-31.738,0
1664548754.399,-48.828,-15.137,-105.957,-42.969,0
1664548754.403,-43.457,-19.043,-40.527,-43.945,0
1664548754.407,-39.062,-21.484,-69.336,-37.598,0
1664548754.411,-42.480,-26.367,-195.801,-24.902,0
1664548754.414,-61.035,-22.949,-219.238,-31.738,0
1664548754.418,-64.453,-12.207,-48.340,-58.105,0
1664548754.422,-50.293,-12.695,-18.066,-58.105,0
1664548754.426,-48.340,-24.414,-173.340,-37.109,0
1664548754.430,-61.523,-25.879,-183.105,-40.039,0
1664548754.430,-60.059,-16.602,-53.223,-55.664,0
1664548754.434,-45.410,-20.996,-88.379,-44.434,0
1664548754.438,-47.363,-22.949,-113.770,-43.945,0
1664548754.442,-59.082,-24.414,-99.121,-42.480,0
1664548754.446,-61.523,-26.855,-76.172,-37.598,0
1664548754.450,-48.340,-27.832,-88.379,-28.809,0
1664548754.454,-43.945,-33.691,-213.379,-19.531,0
1664548754.457,-59.570,-26.367,-149.414,-37.109,0
1664548754.461,-62.012,-19.531,19.043,-53.223,0
1664548754.465,-47.363,-28.809,-53.711,-49.805,0
1664548754.469,-28.320,-26.367,-102.051,-36.133,0
1664548754.473,-36.621,-22.949,-32.715,-43.457,0
1664548754.474,-56.152,-29.785,-20.996,-54.688,0
1664548754.478,-43.945,-30.762,-106.934,-44.922,0
1664548754.482,-33.691,-29.297,-157.715,-43.945,0
1664548754.486,-44.434,-23.438,-82.031,-53.223,0
1664548754.490,-58.105,-23.926,-45.898,-60.547,0
1664548754.494,-52.246,-37.109,-186.035,-39.551,0
1664548754.498,-41.504,-34.668,-189.941,-31.738,0
1664548754.501,-48.828,-19.531,6.836,-52.246,0
1664548754.505,-60.059,-24.414,-26.855,-60.059,0
1664548754.509,-59.082,-28.320,-142.578,-52.246,0
1664548754.513,-45.410,-21.973,-96.680,-42.480,0
1664548754.517,-46.875,-24.414,-42.969,-50.293,0
1664548754.535,-52.246,-28.809,-93.262,-59.570,0
1664548754.539,-51.270,-22.461,-130.859,-54.199,0
1664548754.543,-50.781,-27.344,-87.402,-49.316,0
1664548754.547,-43.945,-28.809,-67.383,-50.781,0
1664548754.551,-47.363,-25.879,-112.793,-51.270,0
1664548754.555,-59.082,-34.668,-141.602,-54.199,0
1664548754.559,-59.570,-32.227,-113.770,-53.223,0
1664548754.562,-46.875,-25.391,-47.363,-53.223,0
1664548754.566,-49.316,-24.414,-53.223,-49.805,0
1664548754.570,-66.406,-30.273,-158.691,-41.504,0
1664548754.574,-65.918,-24.414,-122.559,-51.270,0
1664548754.578,-51.270,-17.090,-48.340,-52.246,0
1664548754.579,-48.340,-20.020,-53.711,-39.062,0
1664548754.583,-56.152,-24.902,-91.797,-39.551,0
1664548754.587,-64.453,-24.414,-67.871,-47.363,0
1664548754.591,-63.965,-23.926,-40.039,-51.270,0
1664548754.595,-57.129,-27.344,-108.887,-47.363,0
1664548754.599,-64.941,-30.762,-157.227,-44.434,0
1664548754.603,-72.266,-28.809,-101.074,-51.758,0
1664548754.606,-49.805,-23.926,-66.406,-45.898,0
1664548754.610,-5.371,-28.320,-171.875,-3.418,0
1664548754.614,-27.344,-33.203,-193.359,-14.160,0
1664548754.618,-95.703,-32.715,-13.184,-83.984,0
1664548754.622,-100.098,-41.016,-16.113,-87.402,0
1664548754.624,-70.801,-37.598,-66.406,-53.711,0
1664548754.628,-65.918,-33.691,-41.992,-52.734,0
1664548754.632,-78.125,-35.156,-27.832,-58.594,0
1664548754.636,-75.195,-40.039,-90.820,-47.363,0
1664548754.640,-60.547,-36.621,-126.953,-41.992,0
1664548754.644,-54.688,-31.250,-124.023,-45.410,0
1664548754.648,-68.848,-37.598,-85.938,-58.594,0
1664548754.651,-73.242,-37.598,-43.457,-61.035,0
1664548754.655,-44.922,-38.574,-197.266,-31.250,0
1664548754.659,-45.410,-30.762,-164.551,-31.250,0
1664548754.663,-64.453,-21.973,-42.969,-45.898,0
1664548754.667,-63.965,-28.320,-115.234,-36.133,0
1664548754.670,-54.199,-29.785,-97.168,-35.156,0
1664548754.674,-53.223,-30.762,-81.055,-37.598,0
1664548754.678,-62.012,-30.273,-82.031,-44.434,0
1664548754.682,-60.547,-27.344,-101.562,-49.316,0
1664548754.686,-58.594,-27.344,-129.395,-45.410,0
1664548754.690,-51.758,-28.809,-127.441,-32.715,0
1664548754.694,-51.270,-24.414,-82.520,-31.738,0
1664548754.697,-59.082,-29.785,-184.570,-36.621,0
1664548754.701,-57.129,-32.227,-240.723,-33.203,0
1664548754.705,-55.176,-21.973,-24.902,-46.387,0
1664548754.709,-54.688,-23.438,-22.949,-56.641,0
1664548754.713,-62.012,-24.414,-138.184,-57.129,0
1664548754.715,-73.242,-26.367,-136.230,-62.012,0
1664548754.719,-71.777,-19.043,-33.691,-58.594,0
1664548754.723,-63.965,-16.602,-51.758,-45.410,0
1664548754.727,-75.195,-20.508,-111.816,-60.547,0
1664548754.731,-83.496,-19.043,-109.863,-73.730,0
1664548754.735,-70.312,-21.973,-127.441,-62.012,0
1664548754.739,-63.965,-20.020,-96.680,-61.523,0
1664548754.742,-69.336,-23.926,-189.453,-52.734,0
1664548754.746,-78.613,-19.531,-143.555,-56.641,0
1664548754.750,-77.637,-9.766,-6.836,-63.477,0
1664548754.754,-62.988,-17.578,-98.633,-46.387,0
1664548754.758,-62.988,-22.949,-99.121,-52.734,0
1664548754.760,-78.613,-18.555,-46.875,-72.266,0
1664548754.764,-83.496,-14.648,-65.918,-70.312,0
1664548754.768,-67.871,-20.020,-121.094,-58.105,0
1664548754.772,-62.988,-21.484,-107.910,-64.453,0
1664548754.776,-73.730,-16.113,-70.312,-66.895,0
1664548754.780,-77.148,-18.066,-121.094,-64.941,0
1664548754.784,-67.383,-23.926,-202.637,-54.199,0
1664548754.787,-61.035,-20.508,-197.266,-37.109,0
1664548754.791,-64.453,-9.766,-41.016,-48.828,0
1664548754.795,-56.152,-6.348,-42.969,-45.410,0
1664548754.799,-53.223,-2.441,-124.512,-27.344,0
1664548754.803,-73.242,-9.766,-115.723,-45.898,0
1664548754.804,-87.891,-19.531,-61.523,-74.707,0
1664548754.808,-85.938,-20.508,-74.219,-72.266,0
1664548754.812,-76.660,-23.926,-125.000,-65.430,0
1664548754.816,-54.688,-23.926,-115.723,-54.688,0
1664548754.820,-48.340,-21.484,-117.188,-49.316,0
1664548754.824,-61.035,-20.996,-145.020,-54.688,0
1664548754.828,-67.383,-20.020,-191.895,-48.828,0
1664548754.831,-55.664,-12.695,-98.145,-48.340,0
1664548754.835,-41.504,-9.277,-18.555,-50.293,0
1664548754.839,-48.340,-11.230,-97.656,-49.316,0
1664548754.843,-62.500,-17.090,-146.484,-43.457,0
1664548754.847,-59.082,-15.137,-114.258,-46.387,0
1664548754.849,-48.828,-10.742,-39.062,-61.035,0
1664548754.853,-55.176,-19.531,-89.355,-63.477,0
1664548754.857,-74.707,-22.461,-133.301,-63.965,0
1664548754.861,-77.148,-18.555,-63.965,-60.059,0
1664548754.865,-57.617,-17.578,-51.758,-46.875,0
1664548754.869,-51.758,-24.902,-172.852,-39.062,0
1664548754.873,-66.406,-26.367,-229.492,-40.527,0
1664548754.876,-72.266,-18.066,-84.473,-53.711,0
1664548754.880,-60.547,-21.973,-34.180,-61.523,0
1664548754.884,-54.199,-27.344,-105.957,-55.176,0
1664548754.888,-73.730,-27.832,-113.281,-54.199,0
1664548754.892,-83.008,-21.973,-78.613,-53.711,0
1664548754.910,-61.523,-25.879,-103.027,-48.828,0
1664548754.914,-61.523,-30.762,-109.863,-57.617,0
1664548754.918,-75.684,-27.344,-105.957,-73.730,0
1664548754.922,-80.078,-22.461,-76.172,-69.824,0
1664548754.926,-72.754,-23.438,-81.543,-58.105,0
1664548754.930,-62.500,-27.344,-154.297,-50.293,0
1664548754.934,-70.801,-21.973,-116.699,-55.664,0
1664548754.937,-89.844,-22.949,-39.551,-70.801,0
1664548754.941,-76.172,-25.391,-83.008,-61.523,0
1664548754.945,-54.688,-22.461,-194.824,-38.086,0
1664548754.949,-61.523,-24.414,-158.203,-42.480,0
1664548754.953,-73.242,-22.949,-24.414,-58.594,0
1664548754.955,-72.266,-19.043,-57.617,-61.035,0
1664548754.959,-64.453,-18.555,-103.027,-62.988,0
1664548754.963,-63.477,-20.020,-59.570,-62.500,0
1664548754.967,-70.312,-23.438,-43.457,-59.570,0
1664548754.971,-68.848,-20.020,-83.008,-54.199,0
1664548754.975,-55.664,-20.996,-174.316,-46.387,0
1664548754.979,-51.758,-18.066,-106.445,-54.688,0
1664548754.982,-67.383,-15.625,4.395,-66.406,0
1664548754.986,-73.242,-30.273,-152.832,-53.223,0
1664548754.990,-64.453,-31.738,-204.102,-41.016,0
1664548754.994,-58.105,-23.438,-8.789,-52.246,0
1664548754.998,-59.570,-26.855,-71.777,-57.129,0
1664548755.002,-75.195,-20.996,-122.070,-66.895,0
1664548755.006,-77.148,-20.508,-48.828,-74.219,0
1664548755.010,-66.406,-19.043,-12.207,-71.289,0
1664548755.014,-59.082,-17.578,-67.383,-66.406,0
1664548755.018,-65.918,-20.508,-134.766,-63.477,0
1664548755.022,-72.754,-23.438,-153.809,-60.547,0
1664548755.026,-67.871,-24.414,-102.051,-66.406,0
1664548755.029,-66.895,-22.949,-38.574,-71.289,0
1664548755.033,-68.848,-31.250,-182.617,-51.270,0
1664548755.037,-72.266,-23.926,-121.582,-59.082,0
1664548755.041,-67.871,-19.531,9.766,-72.754,0
1664548755.045,-46.387,-37.598,-69.336,-48.340,0
1664548755.045,-30.762,-41.504,-37.598,-23.926,0
1664548755.049,-38.086,-29.297,-12.695,-24.414,0
1664548755.053,-59.082,-16.602,-20.996,-59.570,0
1664548755.057,-62.012,-16.113,-54.199,-76.172,0
1664548755.061,-48.340,-16.113,-81.055,-57.617,0
1664548755.065,-57.129,-9.277,-102.051,-53.223,0
1664548755.069,-59.570,-11.230,-50.781,-64.941,0
1664548755.072,-35.156,-19.531,-81.055,-52.734,0
1664548755.076,-28.809,-14.648,-172.363,-41.992,0
1664548755.080,-51.270,-2.441,1.465,-67.871,0
1664548755.084,-49.805,-9.766,-25.879,-67.871,0
1664548755.088,-29.785,-7.324,-119.629,-51.758,0
1664548755.090,-16.113,-2.930,-79.102,-50.293,0
1664548755.094,-36.133,-11.719,-44.922,-63.965,0
1664548755.098,-54.688,-16.602,-53.223,-66.895,0
1664548755.102,-38.086,-16.113,-102.539,-51.758,0
1664548755.106,-26.367,-14.160,-102.539,-50.293,0
1664548755.110,-32.715,-12.207,-93.750,-52.246,0
1664548755.114,-46.387,-9.766,-76.660,-57.129,0
1664548755.117,-45.410,-20.508,-151.855,-46.387,0
1664548755.121,-42.969,-18.066,-84.961,-40.527,0
1664548755.125,-44.922,-3.906,55.664,-61.523,0
1664548755.129,-49.316,-10.254,-48.828,-57.617,0
1664548755.133,-48.340,-12.695,-61.035,-48.828,0
1664548755.135,-33.691,-6.836,-25.391,-43.945,0
1664548755.139,-32.715,-5.371,-57.617,-41.504,0
1664548755.143,-48.340,-15.625,-89.355,-51.758,0
1664548755.147,-62.012,-20.996,-58.594,-59.082,0
1664548755.151,-55.176,-19.043,-6.348,-53.223,0
1664548755.155,-44.434,-23.926,-52.734,-46.387,0
1664548755.159,-45.410,-26.367,-166.504,-33.691,0
1664548755.162,-48.828,-20.508,-182.617,-32.227,0
1664548755.166,-57.129,-17.090,6.348,-62.500,0
1664548755.170,-48.340,-18.066,17.090,-58.105,0
1664548755.174,-45.410,-20.020,-81.055,-46.387,0
1664548755.178,-60.059,-24.902,-60.547,-62.500,0
1664548755.180,-60.059,-20.996,0.977,-64.941,0
1664548755.184,-46.387,-24.902,-18.555,-54.199,0
1664548755.188,-46.387,-29.785,-51.270,-49.316,0
1664548755.192,-58.594,-24.414,-23.438,-55.664,0
1664548755.196,-60.059,-23.438,-19.043,-57.129,0
1664548755.200,-50.293,-29.785,-33.203,-53.711,0
1664548755.204,-42.480,-31.738,-161.133,-31.738,0
1664548755.207,-60.059,-23.438,-90.820,-40.039,0
1664548755.211,-67.383,-20.508,49.805,-72.754,0
1664548755.215,-46.387,-24.902,-23.438,-67.871,0
1664548755.219,-37.598,-25.391,-36.621,-56.152,0
1664548755.223,-46.387,-22.461,-5.371,-66.406,0
1664548755.225,-54.688,-20.508,39.062,-67.871,0
1664548755.229,-53.223,-26.855,-44.922,-52.734,0
1664548755.233,-48.340,-26.367,-41.016,-56.152,0
1664548755.237,-56.152,-21.484,38.086,-58.594,0
1664548755.241,-71.777,-22.461,20.996,-58.594,0
1664548755.245,-69.824,-28.809,-100.586,-50.781,0
1664548755.249,-57.129,-23.438,-130.371,-37.109,0
1664548755.252,-62.012,-12.207,69.336,-58.594,0
1664548755.256,-73.242,-24.902,85.938,-76.660,0
1664548755.260,-62.500,-26.367,-35.156,-62.012,0
1664548755.264,-49.805,-17.090,-1.465,-49.805,0
1664548755.268,-51.270,-22.949,52.734,-48.828,0
1664548755.285,-67.383,-26.367,28.809,-52.246,0
1664548755.289,-66.895,-21.973,-24.902,-50.293,0
1664548755.293,-55.664,-13.672,-4.883,-47.363,0
1664548755.297,-58.105,-11.230,81.543,-43.945,0
1664548755.301,-61.523,-16.602,48.828,-44.922,0
1664548755.305,-67.871,-20.996,-50.293,-48.340,0
1664548755.309,-72.266,-21.973,-14.648,-47.852,0
1664548755.312,-61.523,-18.555,48.340,-49.805,0
1664548755.316,-64.941,-22.949,29.297,-54.688,0
1664548755.320,-82.031,-26.367,-29.785,-62.012,0
1664548755.324,-79.590,-20.508,-29.785,-65.918,0
1664548755.328,-69.824,-16.113,63.477,-62.012,0
1664548755.330,-61.035,-15.625,67.383,-52.246,0
1664548755.334,-55.664,-21.973,-22.949,-44.922,0
1664548755.338,-66.406,-20.996,21.973,-56.641,0
1664548755.342,-62.012,-17.090,92.285,-60.547,0
1664548755.346,-49.805,-17.578,34.668,-46.875,0
1664548755.350,-62.500,-23.926,-40.527,-57.129,0
1664548755.354,-66.406,-19.531,30.762,-66.895,0
1664548755.357,-59.570,-18.555,143.555,-63.965,0
1664548755.361,-49.316,-35.156,-3.906,-42.480,0
1664548755.365,-54.199,-36.621,-73.242,-34.668,0
1664548755.369,-70.801,-21.484,111.816,-65.430,0
1664548755.373,-62.500,-26.855,110.840,-72.266,0
1664548755.375,-49.316,-30.762,52.246,-67.383,0
1664548755.379,-54.199,-29.297,82.520,-69.824,0
1664548755.383,-66.895,-34.180,134.277,-72.266,0
1664548755.387,-58.105,-26.367,93.750,-64.453,0
1664548755.391,-45.410,-18.555,62.500,-52.246,0
1664548755.395,-44.922,-20.508,56.152,-48.828,0
1664548755.399,-60.547,-17.578,91.797,-61.523,0
1664548755.402,-63.965,-17.090,136.719,-51.270,0
1664548755.406,-39.062,-27.344,-6.348,-22.949,0
1664548755.410,-37.598,-19.531,48.340,-33.203,0
1664548755.414,-58.105,-14.160,111.816,-51.758,0
1664548755.418,-78.613,-24.902,64.453,-63.477,0
1664548755.420,-74.707,-29.297,88.867,-65.430,0
1664548755.424,-54.688,-20.020,116.211,-55.664,0
1664548755.428,-50.293,-16.602,154.785,-49.805,0
1664548755.432,-57.617,-17.090,89.844,-45.898,0
1664548755.436,-56.641,-18.066,51.758,-52.734,0
1664548755.440,-44.922,-21.973,51.270,-48.340,0
1664548755.444,-45.410,-17.090,53.711,-38.574,0
1664548755.447,-58.594,-18.066,-5.859,-39.062,0
1664548755.451,-65.430,-21.484,-18.066,-44.434,0
1664548755.455,-58.594,-10.254,148.438,-56.152,0
1664548755.459,-50.781,-7.324,118.652,-44.922,0
1664548755.463,-56.641,-10.742,17.090,-38.086,0
1664548755.468,-65.918,-13.184,46.875,-52.734,0
1664548755.472,-62.012,-12.207,97.656,-51.270,0
1664548755.476,-50.781,-14.160,44.434,-42.969,0
1664548755.480,-62.500,-18.555,22.949,-45.898,0
1664548755.484,-78.125,-17.090,32.715,-48.828,0
1664548755.488,-65.918,-21.973,-21.973,-47.363,0
1664548755.492,-53.711,-23.438,25.391,-44.922,0
1664548755.495,-56.641,-29.297,-72.754,-35.645,0
1664548755.499,-69.824,-28.809,-98.633,-49.316,0
1664548755.503,-68.848,-24.902,55.664,-69.824,0
1664548755.507,-53.223,-32.715,14.648,-57.617,0
1664548755.511,-52.734,-27.344,4.395,-48.828,0
1664548755.510,-69.336,-25.879,41.992,-55.664,0
1664548755.514,-76.660,-29.297,39.062,-56.152,0
1664548755.518,-60.059,-32.715,-3.418,-42.969,0
1664548755.522,-58.594,-34.180,-11.719,-44.434,0
1664548755.526,-70.312,-31.738,16.602,-62.988,0
1664548755.530,-71.289,-34.668,-41.016,-59.570,0
1664548755.534,-54.199,-39.062,-99.121,-45.410,0
1664548755.537,-47.363,-33.203,-87.891,-38.086,0
1664548755.541,-68.359,-17.578,71.777,-53.711,0
1664548755.545,-66.895,-19.043,90.820,-59.082,0
1664548755.549,-57.617,-26.855,-19.531,-52.246,0
1664548755.553,-55.664,-25.391,-10.742,-59.082,0
1664548755.555,-63.965,-17.090,63.965,-63.477,0
1664548755.559,-71.777,-21.484,15.625,-57.617,0
1664548755.563,-69.824,-28.809,-22.949,-57.617,0
1664548755.567,-65.430,-28.809,2.930,-57.617,0
1664548755.571,-59.082,-24.902,20.020,-56.641,0
1664548755.575,-58.594,-24.902,-26.367,-55.176,0
1664548755.579,-65.430,-32.715,-167.480,-38.086,0
1664548755.582,-62.500,-26.855,-91.309,-36.621,0
1664548755.586,-56.641,-18.066,107.910,-67.871,0
1664548755.590,-58.105,-21.484,81.055,-70.312,0
1664548755.594,-63.965,-29.785,-14.648,-59.082,0
1664548755.598,-59.570,-29.785,-18.066,-52.734,0
1664548755.599,-48.340,-25.879,36.133,-44.434,0
1664548755.603,-51.270,-30.762,-22.461,-41.504,0
1664548755.607,-64.941,-26.367,-24.414,-54.199,0
1664548755.611,-63.477,-18.555,48.340,-57.617,0
1664548755.615,-42.969,-20.508,41.504,-42.480,0
1664548755.619,-43.945,-33.203,-96.680,-36.621,0
1664548755.623,-78.125,-45.898,-126.465,-59.570,0
1664548755.626,-87.891,-32.227,73.730,-79.590,0
1664548755.630,-62.500,-24.414,95.215,-62.988,0
1664548755.634,-46.875,-27.344,-50.293,-43.457,0
1664548755.638,-60.547,-23.438,-62.012,-53.711,0
1664548755.642,-71.777,-25.391,32.715,-60.059,0
1664548755.659,-56.152,-29.297,15.625,-51.270,0
1664548755.663,-46.875,-30.762,-42.969,-58.105,0
1664548755.667,-58.594,-29.785,-18.066,-62.012,0
1664548755.671,-64.453,-25.879,-9.766,-61.035,0
1664548755.675,-55.664,-29.785,-61.035,-49.805,0
1664548755.679,-41.504,-27.832,-104.980,-29.297,0
1664548755.683,-54.199,-26.855,-51.270,-40.527,0
1664548755.686,-72.754,-30.273,37.109,-59.082,0
1664548755.690,-60.059,-26.367,0.977,-57.617,0
1664548755.694,-51.270,-26.855,-83.984,-57.129,0
1664548755.698,-58.105,-29.785,-69.336,-62.500,0
1664548755.702,-62.012,-23.926,14.160,-66.895,0
1664548755.704,-48.828,-18.066,-6.348,-48.340,0
1664548755.708,-34.180,-16.113,-20.996,-40.527,0
1664548755.712,-44.922,-19.043,37.109,-46.387,0
1664548755.716,-60.547,-22.461,29.297,-44.434,0
1664548755.720,-64.941,-23.926,-55.176,-49.805,0
1664548755.724,-53.223,-25.391,-134.277,-51.758,0
1664548755.728,-42.480,-20.508,-102.539,-43.945,0
1664548755.731,-45.410,-14.160,-28.320,-49.805,0
1664548755.735,-55.176,-26.855,-105.957,-48.340,0
1664548755.739,-55.664,-33.691,-203.125,-35.156,0
1664548755.743,-50.781,-19.043,-33.203,-46.875,0
1664548755.747,-50.781,-22.949,3.906,-51.758,0
1664548755.750,-53.223,-31.250,-155.273,-36.133,0
1664548755.754,-54.688,-20.508,-138.672,-21.973,0
1664548755.758,-46.875,-13.184,-21.484,-26.855,0
1664548755.762,-47.852,-19.043,-36.133,-46.387,0
1664548755.766,-66.406,-24.902,-58.594,-59.082,0
1664548755.770,-65.430,-27.344,-96.191,-57.129,0
1664548755.774,-52.246,-14.648,-39.551,-55.664,0
1664548755.777,-43.457,-9.277,4.883,-51.270,0
1664548755.781,-44.922,-20.020,-128.418,-38.086,0
1664548755.785,-65.918,-19.531,-39.551,-51.270,0
1664548755.789,-58.105,-21.484,73.730,-62.988,0
1664548755.793,-41.016,-21.484,-0.488,-45.410,0
1664548755.795,-54.199,-18.066,21.484,-38.574,0
1664548755.799,-53.711,-15.625,37.598,-34.180,0
1664548755.803,-41.992,-16.602,36.133,-38.574,0
1664548755.807,-33.203,-18.555,5.371,-41.504,0
1664548755.811,-38.574,-15.137,-19.531,-45.898,0
1664548755.815,-60.059,-23.926,-72.754,-62.500,0
1664548755.819,-64.941,-25.879,-34.668,-72.266,0
1664548755.822,-48.340,-25.391,-54.199,-52.734,0
1664548755.826,-47.363,-28.809,-114.258,-41.016,0
1664548755.830,-65.430,-17.578,47.852,-63.965,0
1664548755.834,-66.406,-23.438,15.625,-67.871,0
1664548755.838,-59.082,-28.809,-43.457,-57.129,0
1664548755.840,-56.641,-23.926,25.879,-50.293,0
1664548755.844,-58.594,-22.949,51.270,-48.828,0
1664548755.848,-66.406,-28.809,7.812,-54.688,0
1664548755.852,-55.664,-26.367,-2.441,-54.688,0
1664548755.856,-41.016,-18.555,35.156,-47.852,0
1664548755.860,-54.688,-23.926,-11.230,-44.922,0
1664548755.864,-73.730,-32.715,-14.648,-61.523,0
1664548755.867,-68.359,-36.621,-100.586,-49.316,0
1664548755.871,-59.082,-28.320,-18.555,-41.992,0
1664548755.875,-56.641,-24.902,138.672,-65.918,0
1664548755.879,-61.523,-37.109,-10.742,-69.336,0
1664548755.883,-66.406,-35.645,-40.039,-63.477,0
1664548755.885,-51.270,-30.762,20.996,-45.410,0
1664548755.889,-46.875,-30.762,20.508,-41.504,0
1664548755.893,-65.430,-33.691,3.418,-57.617,0
1664548755.897,-61.523,-33.203,-9.277,-53.711,0
1664548755.901,-31.738,-24.902,3.906,-22.949,0
1664548755.905,-17.090,-18.555,-32.715,-15.137,0
1664548755.909,-49.316,-29.785,-82.031,-33.691,0
1664548755.912,-77.148,-41.016,-86.914,-44.922,0
1664548755.916,-70.801,-31.738,58.105,-52.734,0
1664548755.920,-56.152,-40.039,73.730,-53.223,0
1664548755.924,-58.105,-48.828,3.906,-54.199,0
1664548755.928,-72.754,-42.480,7.324,-54.199,0
1664548755.930,-77.148,-43.457,30.762,-54.688,0
1664548755.934,-59.082,-43.457,10.742,-56.641,0
1664548755.938,-54.688,-41.992,-27.344,-55.176,0
1664548755.942,-71.777,-43.457,-37.109,-65.430,0
1664548755.946,-67.871,-39.062,3.418,-73.242,0
1664548755.950,-55.176,-38.086,10.254,-67.871,0
1664548755.954,-52.246,-42.480,-106.934,-49.316,0
1664548755.957,-62.500,-39.551,-60.547,-57.617,0
1664548755.961,-74.219,-32.227,108.398,-76.660,0
1664548755.965,-64.453,-30.762,74.219,-61.523,0
1664548755.969,-55.664,-33.691,12.695,-51.758,0
1664548755.973,-62.988,-38.086,42.969,-57.617,0
1664548755.974,-66.406,-33.691,104.004,-63.965,0
1664548755.978,-55.176,-33.691,35.156,-58.594,0
1664548755.982,-44.922,-36.133,10.742,-56.152,0
1664548755.986,-57.129,-36.133,48.828,-62.012,0
1664548755.990,-68.359,-36.133,62.988,-66.895,0
1664548755.994,-56.152,-39.551,-23.926,-55.664,0
1664548755.998,-44.922,-43.945,-90.332,-41.016,0
1664548756.001,-50.781,-29.297,94.727,-52.734,0
1664548756.005,-58.105,-23.438,163.086,-57.129,0
1664548756.009,-51.758,-31.250,24.902,-30.762,0
1664548756.013,-49.805,-27.832,39.062,-31.738,0
1664548756.017,-53.223,-24.902,145.020,-55.664,0
1664548756.035,-60.547,-29.785,107.910,-50.781,0
1664548756.039,-65.430,-24.902,41.504,-42.969,0
1664548756.043,-51.758,-20.508,52.734,-45.410,0
1664548756.047,-44.922,-23.926,95.703,-51.270,0
1664548756.051,-53.711,-24.414,82.520,-54.199,0
1664548756.055,-60.059,-25.391,2.441,-43.457,0
1664548756.059,-59.570,-24.414,23.438,-33.203,0
1664548756.062,-49.316,-28.320,93.750,-32.227,0
1664548756.066,-45.410,-32.715,59.082,-42.969,0
1664548756.070,-58.594,-27.344,6.836,-49.805,0
1664548756.074,-61.523,-24.414,52.246,-48.340,0
1664548756.078,-47.852,-21.484,142.090,-47.852,0
1664548756.080,-43.457,-17.578,113.770,-41.504,0
1664548756.084,-58.594,-20.996,86.426,-39.062,0
1664548756.088,-70.801,-25.391,124.512,-48.340,0
1664548756.092,-61.523,-24.902,146.484,-49.805,0
1664548756.096,-51.758,-30.762,88.379,-45.898,0
1664548756.100,-50.781,-36.621,3.906,-44.434,0
1664548756.104,-46.875,-26.855,48.828,-37.598,0
1664548756.107,-38.574,-20.996,153.809,-36.133,0
1664548756.111,-38.574,-36.133,33.203,-33.691,0
1664548756.115,-65.430,-43.457,-79.590,-38.574,0
1664548756.119,-92.773,-35.645,91.309,-61.523,0
1664548756.123,-80.078,-36.621,160.645,-57.617,0
1664548756.125,-58.594,-37.109,92.285,-40.039,0
1664548756.129,-67.871,-31.738,97.168,-50.293,0
1664548756.133,-90.820,-33.691,144.043,-58.105,0
1664548756.137,-89.844,-39.062,117.676,-50.781,0
1664548756.141,-76.172,-39.551,77.148,-52.246,0
1664548756.145,-72.754,-41.016,74.219,-51.758,0
1664548756.149,-82.031,-36.621,107.422,-56.641,0
1664548756.152,-81.543,-29.297,153.809,-61.523,0
1664548756.156,-63.477,-35.156,11.230,-32.715,0
1664548756.160,-58.594,-33.203,24.414,-28.809,0
1664548756.164,-67.871,-36.621,144.043,-48.828,0
1664548756.168,-72.266,-43.945,78.125,-46.875,0
1664548756.170,-69.336,-39.062,66.406,-45.410,0
1664548756.174,-57.129,-28.809,115.723,-44.922,0
1664548756.178,-54.688,-25.879,171.387,-52.734,0
1664548756.182,-64.453,-33.691,102.539,-60.059,0
1664548756.186,-62.988,-39.062,76.172,-66.895,0
1664548756.190,-52.246,-40.039,57.129,-62.500,0
1664548756.194,-58.594,-34.668,113.281,-65.430,0
1664548756.197,-66.895,-37.109,86.426,-63.965,0
1664548756.201,-63.477,-38.086,-20.996,-41.016,0
1664548756.205,-57.617,-25.391,143.555,-49.316,0
1664548756.209,-51.758,-25.879,179.199,-64.453,0
1664548756.213,-61.523,-34.180,77.148,-72.266,0
1664548756.215,-68.359,-32.227,83.008,-70.801,0
1664548756.219,-52.246,-21.484,124.023,-56.152,0
1664548756.223,-37.598,-26.367,63.965,-50.781,0
1664548756.227,-44.434,-26.855,41.016,-55.176,0
1664548756.231,-58.594,-31.250,39.551,-61.035,0
1664548756.235,-59.082,-41.992,7.324,-56.152,0
1664548756.239,-53.711,-36.133,48.828,-52.246,0
1664548756.242,-51.758,-35.156,-75.195,-41.504,0
1664548756.246,-62.988,-27.832,-47.363,-41.992,0
1664548756.250,-67.383,-29.297,130.371,-46.387,0
1664548756.254,-52.734,-40.039,38.086,-39.551,0
1664548756.258,-54.199,-35.645,3.418,-62.500,0
1664548756.260,-68.848,-32.715,69.336,-73.242,0
1664548756.264,-70.312,-31.250,91.797,-62.500,0
1664548756.268,-58.105,-35.645,26.367,-55.664,0
1664548756.272,-52.246,-32.227,25.391,-59.570,0
1664548756.276,-62.988,-29.297,87.891,-55.664,0
1664548756.280,-70.801,-39.062,38.574,-56.152,0
1664548756.284,-57.129,-41.992,-48.340,-46.875,0
1664548756.287,-48.828,-33.691,-64.941,-34.180,0
1664548756.291,-63.965,-24.414,82.520,-57.129,0
1664548756.295,-70.801,-31.738,88.867,-67.871,0
1664548756.299,-65.918,-33.691,18.066,-62.988,0
1664548756.303,-53.711,-27.344,37.598,-64.941,0
1664548756.305,-49.316,-24.414,63.965,-62.988,0
1664548756.309,-48.340,-24.902,37.109,-47.852,0
1664548756.313,-42.480,-28.320,-16.602,-41.504,0
1664548756.317,-57.617,-34.668,13.672,-64.941,0
1664548756.321,-72.266,-40.527,36.621,-75.195,0
1664548756.325,-80.078,-43.945,2.441,-68.359,0
1664548756.329,-70.801,-46.875,-137.207,-50.293,0
1664548756.332,-54.688,-38.086,-129.883,-39.551,0
1664548756.336,-57.617,-25.879,84.473,-49.316,0
1664548756.340,-59.570,-30.273,61.523,-50.293,0
1664548756.344,-59.082,-31.250,-49.316,-49.316,0
1664548756.348,-60.547,-24.414,-6.348,-49.316,0
1664548756.349,-53.223,-21.973,69.824,-52.734,0
1664548756.353,-45.898,-21.484,1.465,-50.293,0
1664548756.357,-64.453,-20.020,-44.922,-51.270,0
1664548756.361,-71.777,-21.973,-1.953,-55.176,0
1664548756.365,-54.199,-20.020,-13.672,-50.781,0
1664548756.369,-45.898,-27.832,-125.977,-40.527,0
1664548756.373,-55.664,-31.250,-185.059,-41.504,0
1664548756.376,-64.941,-19.043,-19.043,-56.641,0
1664548756.380,-48.828,-18.066,29.297,-58.105,0
1664548756.384,-41.016,-26.367,-63.965,-45.898,0
1664548756.388,-61.523,-27.344,-78.125,-48.340,0
1664548756.392,-63.965,-23.926,-6.348,-49.316,0
1664548756.410,-25.879,-36.133,5.859,-27.832,0
1664548756.414,-12.695,-44.434,-62.012,-8.301,0
1664548756.418,-41.992,-27.832,-84.961,-29.297,0
1664548756.422,-70.312,-13.672,-43.945,-68.848,0
1664548756.426,-60.059,-18.066,-66.406,-61.035,0
1664548756.430,-45.410,-23.438,-115.723,-46.875,0
1664548756.434,-54.688,-18.555,-86.914,-60.059,0
1664548756.437,-59.570,-12.695,-17.090,-68.359,0
1664548756.441,-50.293,-8.301,-24.414,-57.617,0
1664548756.445,-32.715,-10.254,-132.812,-45.410,0
1664548756.449,-29.297,-13.672,-121.094,-50.293,0
1664548756.453,-41.016,-6.836,-31.738,-62.012,0
1664548756.455,-47.363,-8.789,-41.504,-60.059,0
1664548756.459,-35.645,-13.184,-5.859,-48.828,0
1664548756.463,-23.438,-12.207,48.340,-46.875,0
1664548756.467,-35.156,-15.625,39.551,-60.059,0
1664548756.471,-40.039,-22.949,-46.875,-56.152,0
1664548756.475,-32.715,-30.762,-93.262,-40.527,0
1664548756.479,-31.250,-21.484,-45.898,-41.016,0
1664548756.482,-38.086,-12.695,22.461,-47.852,0
1664548756.486,-41.504,-26.855,-66.406,-41.016,0
1664548756.490,-38.574,-27.832,-139.648,-32.715,0
1664548756.494,-45.898,-17.090,70.801,-55.176,0
1664548756.498,-41.504,-20.020,80.566,-57.617,0
1664548756.500,-47.363,-21.973,-22.461,-46.875,0
1664548756.504,-62.500,-19.531,-5.859,-44.434,0
1664548756.508,-46.387,-19.043,-11.719,-37.598,0
1664548756.512,-40.527,-18.066,-35.156,-45.898,0
1664548756.516,-62.500,-17.578,-29.297,-58.105,0
1664548756.520,-70.312,-23.926,-53.711,-59.570,0
1664548756.524,-62.012,-21.973,-26.855,-56.641,0
1664548756.527,-59.570,-23.926,27.832,-56.641,0
1664548756.531,-65.430,-32.715,-120.117,-55.176,0
1664548756.535,-76.660,-20.996,-84.473,-61.523,0
1664548756.539,-60.547,-14.648,20.996,-62.988,0
1664548756.543,-39.062,-18.555,-51.270,-46.875,0
1664548756.545,-56.152,-10.254,8.301,-53.711,0
1664548756.549,-71.777,-15.137,5.859,-70.801,0
1664548756.553,-61.523,-12.695,28.320,-68.359,0
1664548756.557,-43.457,-9.766,-3.906,-44.434,0
1664548756.561,-42.480,-12.695,-78.613,-34.668,0
1664548756.565,-64.941,-13.672,-49.316,-54.199,0
1664548756.569,-67.871,-16.113,-15.625,-59.082,0
1664548756.572,-48.828,-17.578,-56.641,-40.039,0
1664548756.576,-49.316,-20.020,-83.984,-39.551,0
1664548756.580,-65.918,-9.277,76.172,-62.988,0
1664548756.584,-67.383,-9.766,100.098,-64.453,0
1664548756.588,-43.457,-15.625,8.301,-49.316,0
1664548756.600,-41.992,-14.648,19.531,-47.852,0
1664548756.604,-67.383,-14.648,39.551,-57.617,0
1664548756.608,-66.895,-21.484,1.465,-53.223,0
1664548756.612,-38.086,-25.391,-16.602,-25.391,0
1664548756.616,-24.414,-26.367,2.441,-12.207,0
1664548756.620,-50.293,-24.414,-23.438,-35.645,0
1664548756.624,-71.289,-9.766,-14.648,-70.312,0
1664548756.627,-61.523,-10.742,-130.859,-57.129,0
1664548756.631,-54.688,-15.137,-114.258,-49.805,0
1664548756.635,-57.617,-15.625,45.898,-66.406,0
1664548756.639,-57.617,-19.531,-46.387,-57.617,0
1664548756.643,-61.523,-17.090,-43.945,-58.105,0
1664548756.635,-53.223,-13.184,60.059,-59.082,0
1664548756.639,-45.410,-11.719,42.969,-53.711,0
1664548756.643,-50.293,-9.277,-40.039,-44.434,0
1664548756.647,-55.176,-12.695,-33.203,-43.945,0
1664548756.651,-51.270,-14.648,33.691,-50.781,0
1664548756.655,-39.551,-18.066,9.277,-53.711,0
1664548756.659,-44.922,-24.414,-69.824,-55.664,0
1664548756.662,-54.199,-21.973,-106.445,-45.898,0
1664548756.666,-58.594,-13.184,47.363,-55.176,0
1664548756.670,-45.410,-18.555,45.410,-49.316,0
1664548756.674,-35.645,-22.949,-18.555,-37.109,0
1664548756.678,-52.734,-18.555,24.414,-54.199,0
1664548756.680,-62.988,-18.555,50.781,-65.430,0
1664548756.684,-45.898,-19.531,20.508,-61.523,0
1664548756.688,-45.410,-16.602,-27.832,-63.477,0
1664548756.692,-60.059,-17.578,6.348,-64.453,0
1664548756.696,-57.617,-20.508,-2.930,-49.316,0
1664548756.700,-48.340,-26.855,-45.898,-40.039,0
1664548756.704,-41.504,-34.180,-167.480,-32.227,0
1664548756.707,-58.594,-27.832,-105.957,-43.945,0
1664548756.711,-74.707,-18.555,83.008,-63.965,0
1664548756.715,-62.012,-22.949,44.922,-52.246,0
1664548756.719,-52.246,-32.227,0.977,-52.734,0
1664548756.723,-66.895,-34.180,-26.855,-63.477,0
1664548756.724,-79.590,-29.785,22.949,-70.312,0
1664548756.728,-60.059,-24.414,29.297,-58.105,0
1664548756.732,-41.992,-26.367,-29.785,-42.969,0
1664548756.736,-48.828,-26.855,2.441,-46.387,0
1664548756.740,-55.176,-25.879,31.250,-49.316,0
1664548756.744,-44.434,-28.809,-61.523,-35.156,0
1664548756.748,-37.109,-18.555,-122.070,-31.250,0
1664548756.751,-54.199,-9.766,63.477,-61.523,0
1664548756.755,-62.988,-20.508,65.430,-72.754,0
1664548756.759,-60.059,-25.879,-41.504,-66.895,0
1664548756.763,-51.758,-25.879,-19.531,-67.871,0
1664548756.767,-47.363,-23.438,6.836,-61.035,0
1664548756.785,-59.570,-21.484,-12.695,-56.641,0
1664548756.789,-67.871,-27.832,-81.543,-49.316,0
1664548756.793,-60.547,-30.762,-91.797,-43.945,0
1664548756.797,-53.711,-22.461,-12.207,-45.410,0
1664548756.801,-60.059,-23.926,-33.203,-53.711,0
1664548756.805,-62.988,-27.832,-119.629,-49.805,0
1664548756.809,-44.922,-21.973,-62.500,-32.715,0
1664548756.812,-34.668,-20.020,29.785,-45.898,0
1664548756.816,-47.363,-24.902,-11.230,-63.965,0
1664548756.820,-72.266,-26.367,-129.395,-68.848,0
1664548756.824,-83.496,-22.949,-111.328,-80.566,0
1664548756.828,-74.219,-16.113,0.977,-88.867,0
1664548756.829,-70.801,-17.090,5.371,-83.008,0
1664548756.833,-79.590,-27.832,-40.527,-87.402,0
1664548756.837,-86.914,-26.855,-22.949,-90.332,0
1664548756.841,-73.730,-23.926,6.348,-81.543,0
1664548756.845,-64.453,-27.832,-61.523,-69.336,0
1664548756.849,-68.359,-27.832,-92.285,-61.523,0
1664548756.853,-75.684,-23.438,-51.270,-66.406,0
1664548756.856,-74.219,-19.043,30.762,-69.336,0
1664548756.860,-53.711,-28.809,-79.590,-53.223,0
1664548756.864,-59.082,-29.785,-177.246,-42.969,0
1664548756.868,-81.055,-12.207,12.695,-68.359,0
1664548756.872,-68.359,-9.277,44.434,-69.824,0
1664548756.875,-49.805,-19.043,-25.879,-55.664,0
1664548756.879,-52.246,-17.578,-20.996,-60.059,0
1664548756.883,-63.477,-15.137,1.465,-65.430,0
1664548756.887,-65.918,-16.113,-12.207,-57.129,0
1664548756.891,-54.688,-9.277,-45.898,-41.504,0
1664548756.895,-49.316,-13.672,-70.312,-37.109,0
1664548756.899,-63.965,-18.066,-77.637,-46.875,0
1664548756.902,-69.336,-14.648,-52.246,-58.105,0
1664548756.906,-51.270,-19.043,-131.836,-37.598,0
1664548756.910,-42.480,-18.555,-71.289,-27.344,0
1664548756.914,-53.223,-11.719,56.152,-45.410,0
1664548756.918,-65.918,-12.207,-13.672,-45.410,0
1664548756.920,-59.570,-13.184,15.625,-47.852,0
1664548756.924,-49.805,-16.113,83.008,-50.293,0
1664548756.928,-59.570,-15.137,75.195,-52.734,0
1664548756.932,-70.801,-20.508,-8.301,-52.734,0
1664548756.936,-65.430,-21.484,-47.852,-54.199,0
1664548756.940,-47.852,-16.602,-54.688,-45.410,0
1664548756.944,-52.734,-15.625,-9.766,-45.898,0
1664548756.947,-62.988,-21.973,-68.359,-47.363,0
1664548756.951,-56.152,-24.902,-164.062,-44.922,0
1664548756.955,-52.246,-16.113,-23.926,-65.430,0
1664548756.959,-52.246,-20.508,20.508,-66.895,0
1664548756.963,-62.012,-25.879,-36.133,-58.594,0
1664548756.964,-53.711,-18.555,-41.992,-54.688,0
1664548756.968,-31.250,-14.160,-29.785,-43.945,0
1664548756.972,-31.738,-24.414,-64.941,-36.621,0
1664548756.976,-56.641,-33.691,-92.773,-50.293,0
1664548756.980,-77.637,-39.551,-44.434,-68.359,0
1664548756.984,-72.266,-38.574,-73.242,-64.941,0
1664548756.988,-57.129,-31.250,-52.246,-55.176,0
1664548756.991,-52.246,-40.527,-143.066,-40.527,0
1664548756.995,-75.684,-39.062,-138.184,-41.016,0
1664548756.999,-85.449,-30.762,45.410,-64.453,0
1664548757.003,-63.477,-40.039,-50.781,-59.570,0
1664548757.007,-65.430,-42.969,-88.379,-67.383,0
1664548757.010,-80.566,-36.133,-10.254,-84.961,0
1664548757.014,-81.055,-34.180,17.090,-85.938,0
1664548757.018,-64.941,-32.715,-21.973,-68.848,0
1664548757.022,-54.688,-31.250,-98.633,-57.129,0
1664548757.026,-62.500,-30.762,-58.594,-64.941,0
1664548757.030,-66.895,-28.320,-31.738,-60.547,0
1664548757.034,-56.641,-34.668,-143.066,-45.410,0
1664548757.037,-48.340,-32.715,-178.711,-36.621,0
1664548757.041,-63.477,-20.020,-30.273,-63.477,0
1664548757.045,-71.289,-19.531,-6.348,-70.801,0
1664548757.049,-58.105,-20.996,-91.797,-55.664,0
1664548757.053,-47.852,-23.926,-79.590,-51.758,0
1664548757.055,-54.688,-28.320,-49.316,-59.082,0
1664548757.059,-66.895,-26.367,-107.910,-58.594,0
1664548757.063,-62.012,-22.949,-144.531,-41.992,0
1664548757.067,-52.246,-17.090,-82.520,-39.551,0
1664548757.071,-49.805,-16.602,-43.457,-43.457,0
1664548757.075,-54.199,-21.973,-94.238,-41.992,0
1664548757.079,-54.199,-30.273,-208.984,-28.320,0
1664548757.082,-46.875,-22.461,-125.977,-27.344,0
1664548757.086,-45.410,-8.789,46.387,-46.875,0
1664548757.090,-47.363,-17.578,-59.570,-38.086,0
1664548757.094,-56.152,-23.438,-167.969,-29.785,0
1664548757.098,-53.223,-16.602,-112.305,-41.992,0
1664548757.099,-45.410,-12.695,-20.020,-53.711,0
1664548757.103,-47.852,-21.973,-52.246,-46.875,0
1664548757.107,-53.223,-21.484,-83.496,-44.434,0
1664548757.111,-51.270,-16.602,-63.477,-47.363,0
1664548757.115,-48.340,-18.066,-89.844,-44.434,0
1664548757.119,-42.969,-23.438,-171.387,-29.297,0
1664548757.123,-54.688,-28.320,-192.871,-20.996,0
1664548757.126,-70.801,-18.555,-20.996,-43.945,0
1664548757.130,-54.199,-19.531,20.508,-44.922,0
1664548757.134,-58.105,-30.273,-83.984,-42.480,0
1664548757.138,-71.289,-29.785,-86.426,-52.734,0
1664548757.142,-71.777,-26.367,-24.902,-60.547,0
1664548757.159,-61.035,-26.367,-49.316,-61.035,0
1664548757.163,-48.340,-30.273,-100.098,-58.105,0
1664548757.167,-55.176,-32.715,-86.426,-55.664,0
1664548757.171,-69.824,-37.109,-36.133,-48.828,0
1664548757.175,-54.688,-39.062,-38.574,-34.180,0
1664548757.179,-36.133,-38.574,-127.441,-18.066,0
