timestamps,TP9,AF7,AF8,TP10
1664462251.386,7.324,-22.949,74.219,-0.488
1664462251.390,-35.156,-25.879,61.523,-19.043
1664462251.394,-42.969,-29.785,63.477,-23.438
1664462251.398,-20.508,-30.273,72.266,-13.184
1664462251.402,2.930,-28.809,69.336,-11.719
1664462251.406,-23.926,-31.738,66.406,-29.785
1664462251.410,-44.434,-28.320,68.359,-27.832
1664462251.413,-12.207,-18.555,69.824,-8.789
1664462251.417,29.785,-16.113,64.941,20.508
1664462251.421,0.977,-26.855,70.312,17.578
1664462251.425,-53.223,-37.109,84.961,-12.695
1664462251.429,-53.223,-34.668,90.332,-20.996
1664462251.446,-33.203,-41.016,76.172,-22.461,0
1664462251.450,-40.527,-52.246,70.312,-26.367,0
1664462251.454,-65.918,-49.316,77.637,-23.438,0
1664462251.458,-72.754,-46.875,85.449,-18.066,0
1664462251.462,-58.594,-51.270,88.867,-14.648,0
1664462251.466,-39.551,-52.246,84.473,-2.441,0
1664462251.470,-66.895,-56.641,94.727,-21.484,0
1664462251.473,-73.242,-57.617,97.656,-30.273,0
1664462251.477,-50.293,-56.641,86.426,-20.508,0
1664462251.481,-21.973,-54.199,80.566,-2.930,0
1664462251.485,-35.156,-54.199,88.867,-12.695,0
1664462251.489,-55.664,-58.594,84.961,-26.367,0
1664462251.491,-45.898,-54.199,74.219,-13.672,0
1664462251.495,-17.578,-46.875,76.172,7.324,0
1664462251.499,-31.738,-51.758,78.125,0.000,0
1664462251.503,-58.105,-55.176,77.148,-12.695,0
1664462251.507,-50.293,-46.387,77.637,-12.207,0
1664462251.511,-25.391,-48.340,82.031,-9.277,0
1664462251.515,-18.066,-49.316,81.543,2.441,0
1664462251.518,-42.480,-47.363,78.613,-4.395,0
1664462251.522,-48.340,-48.828,71.777,-3.906,0
1664462251.526,-32.227,-49.805,70.312,4.883,0
1664462251.530,-17.578,-52.246,68.359,-1.953,0
1664462251.534,-27.832,-41.016,77.148,3.418,0
1664462251.556,-37.109,-37.598,85.938,-0.977,0
1664462251.560,-31.738,-44.922,84.961,-6.348,0
1664462251.564,-7.324,-50.293,73.730,-1.465,0
1664462251.568,-20.508,-46.875,63.477,-8.789,0
1664462251.572,-41.504,-40.039,65.430,-13.184,0
1664462251.576,-39.062,-43.457,74.219,-12.695,0
1664462251.580,-9.277,-44.434,77.148,-6.348,0
1664462251.583,-4.395,-39.551,66.895,-7.324,0
1664462251.587,-28.809,-38.086,59.570,3.906,0
1664462251.591,-30.762,-37.598,69.336,5.859,0
1664462251.595,-7.812,-37.598,76.660,-0.977,0
1664462251.599,-3.906,-37.109,81.055,1.465,0
1664462251.580,-31.250,-36.133,92.773,-8.301,0
1664462251.584,-22.949,-31.738,94.727,-8.789,0
1664462251.588,-4.395,-30.762,83.496,1.465,0
1664462251.592,0.488,-37.109,75.684,1.465,0
1664462251.596,-27.344,-41.504,72.266,-8.301,0
1664462251.600,-39.062,-37.109,68.848,-13.184,0
1664462251.604,-27.832,-36.621,69.824,-23.438,0
1664462251.607,0.000,-37.109,72.754,-7.324,0
1664462251.611,-17.578,-37.598,72.754,-0.488,0
1664462251.615,-39.062,-38.086,80.078,-19.531,0
1664462251.619,-27.832,-33.691,85.449,-16.113,0
1664462251.623,-4.883,-31.738,82.031,8.789,0
1664462251.626,-3.906,-32.227,86.914,10.742,0
1664462251.630,-18.066,-21.973,98.633,7.812,0
1664462251.634,-15.137,-20.020,96.680,12.695,0
1664462251.638,-1.465,-27.344,78.125,9.766,0
1664462251.642,7.812,-27.344,80.078,4.395,0
1664462251.646,-20.996,-27.832,85.449,-6.348,0
1664462251.650,-20.020,-25.391,88.379,-2.930,0
1664462251.653,-6.836,-29.297,79.102,13.672,0
1664462251.657,-2.441,-33.691,76.172,7.812,0
1664462251.661,-19.531,-32.715,82.031,-9.766,0
1664462251.665,-31.738,-35.156,77.637,-0.488,0
1664462251.669,-22.461,-38.086,82.520,8.301,0
1664462251.671,17.578,-34.668,83.984,24.902,0
1664462251.675,21.484,-32.715,81.055,37.598,0
1664462251.679,-11.719,-33.203,86.914,19.531,0
1664462251.683,-29.785,-21.973,86.914,-3.418,0
1664462251.687,-14.648,-17.578,74.707,-13.672,0
1664462251.691,-22.461,-25.391,62.988,-20.020,0
1664462251.695,-52.734,-25.391,59.570,-27.832,0
1664462251.698,-58.594,-20.996,55.664,-16.113,0
1664462251.702,-36.133,-25.391,56.152,-17.578,0
1664462251.706,-22.949,-27.832,56.152,-29.297,0
1664462251.710,-53.711,-28.320,53.223,-48.340,0
1664462251.714,-54.688,-27.832,54.199,-48.340,0
1664462251.716,-30.762,-22.461,58.594,-35.645,0
1664462251.720,-13.672,-24.902,63.477,-23.438,0
1664462251.724,-33.203,-28.809,54.688,-26.367,0
1664462251.728,-43.457,-24.414,59.082,-20.996,0
1664462251.732,-32.227,-23.438,72.266,-16.113,0
1664462251.736,-5.371,-23.926,64.941,-12.207,0
1664462251.740,-14.648,-23.926,51.758,-11.230,0
1664462251.743,-38.574,-20.996,60.059,-21.973,0
1664462251.747,-30.762,-18.066,64.453,-17.090,0
1664462251.751,-9.277,-23.926,70.801,-0.488,0
1664462251.755,-8.789,-24.414,79.102,-1.953,0
1664462251.759,-35.156,-20.996,78.125,-20.508,0
1664462251.760,-36.621,-22.461,71.289,-26.855,0
1664462251.764,-12.695,-20.996,69.824,-9.277,0
1664462251.768,6.348,-20.020,76.172,2.930,0
1664462251.772,-12.207,-20.996,76.172,-7.324,0
1664462251.776,-20.508,-19.043,73.730,-3.906,0
1664462251.780,-19.531,-20.020,64.941,4.395,0
1664462251.784,-3.418,-23.438,67.871,7.812,0
1664462251.787,-19.531,-25.391,82.031,-15.137,0
1664462251.791,-34.668,-26.367,86.426,-25.879,0
1664462251.795,-29.297,-28.809,81.543,-6.836,0
1664462251.799,-10.254,-30.762,73.242,5.859,0
1664462251.803,-13.672,-28.320,73.242,-4.395,0
1664462251.821,-35.645,-30.273,69.336,-10.254,0
1664462251.825,-36.621,-27.344,70.312,-6.348,0
1664462251.829,-7.324,-16.602,81.543,0.488,0
1664462251.833,-6.836,-21.484,84.473,0.488,0
1664462251.837,-32.715,-26.367,81.543,-7.324,0
1664462251.841,-28.320,-13.672,81.543,5.371,0
1664462251.845,-8.789,-10.742,89.844,6.348,0
1664462251.848,2.930,-19.531,97.168,-2.930,0
1664462251.852,-28.320,-22.461,94.238,-7.324,0
1664462251.856,-40.527,-19.531,87.402,1.465,0
1664462251.860,-22.949,-21.973,86.914,-2.930,0
1664462251.864,4.883,-19.531,85.938,7.324,0
1664462251.866,-14.648,-16.113,84.961,17.578,0
1664462251.870,-35.156,-18.066,86.914,5.859,0
1664462251.874,-25.391,-18.555,88.867,1.465,0
1664462251.878,3.418,-17.578,81.543,17.090,0
1664462251.882,3.418,-18.066,78.125,20.508,0
1664462251.886,-21.484,-19.531,82.031,4.883,0
1664462251.890,-22.461,-20.996,82.520,-1.953,0
1664462251.893,-5.371,-26.367,86.426,-3.906,0
1664462251.897,2.930,-26.367,79.590,2.930,0
1664462251.901,-22.949,-23.438,77.637,9.277,0
1664462251.905,-22.949,-21.973,83.984,4.395,0
1664462251.909,3.418,-22.949,77.148,13.184,0
1664462251.911,25.391,-20.020,79.590,21.484,0
1664462251.915,6.348,-16.113,85.938,5.859,0
1664462251.919,-6.348,-14.160,83.496,7.812,0
1664462251.923,4.883,-16.602,80.566,21.973,0
1664462251.927,20.020,-16.113,80.566,19.531,0
1664462251.931,-3.418,-15.625,78.125,-0.977,0
1664462251.935,-31.738,-18.555,74.707,-20.996,0
1664462251.938,-34.668,-26.855,73.730,-20.020,0
1664462251.942,-8.301,-28.809,70.312,4.883,0
1664462251.946,-8.789,-20.020,78.125,0.977,0
1664462251.950,-38.574,-20.508,82.520,-14.160,0
1664462251.954,-36.133,-22.461,82.031,-9.277,0
1664462251.956,-19.531,-20.020,80.566,3.906,0
1664462251.960,-4.883,-21.973,85.449,18.066,0
1664462251.964,-20.020,-19.043,92.773,10.742,0
1664462251.968,-26.367,-17.090,85.449,5.371,0
1664462251.972,-13.672,-20.996,84.473,8.789,0
1664462251.976,2.441,-17.090,81.543,17.578,0
1664462251.980,-19.043,-21.484,80.566,-2.930,0
1664462251.983,-41.992,-31.250,79.590,-12.207,0
1664462251.987,-37.598,-33.691,75.195,-5.859,0
1664462251.991,-8.301,-34.668,76.172,-7.812,0
1664462251.995,-15.625,-32.715,74.707,-13.672,0
1664462251.999,-39.062,-29.785,73.242,-18.555,0
1664462252.001,-38.574,-29.297,73.242,-14.160,0
1664462252.005,-12.207,-32.715,70.312,-2.441,0
1664462252.009,-1.465,-30.273,73.730,4.395,0
1664462252.013,-27.344,-28.809,77.637,4.395,0
1664462252.017,-30.762,-32.715,75.684,-4.883,0
1664462252.021,-7.812,-33.691,75.195,-8.789,0
1664462252.025,10.742,-25.879,78.613,-0.488,0
1664462252.028,-21.484,-32.715,62.500,0.488,0
1664462252.032,-39.551,-38.086,57.129,-2.930,0
1664462252.036,-11.719,-31.250,68.359,0.977,0
1664462252.040,16.113,-29.785,67.871,8.301,0
1664462252.044,-9.766,-34.668,62.500,-1.465,0
1664462252.046,-26.367,-35.156,64.453,-9.766,0
1664462252.050,-19.531,-34.180,69.824,-10.254,0
1664462252.054,-2.930,-27.832,65.918,3.418,0
1664462252.058,-3.906,-24.414,72.266,0.000,0
1664462252.062,-25.391,-31.738,78.613,-16.113,0
1664462252.066,-29.785,-29.297,73.242,-15.137,0
1664462252.070,-13.672,-29.297,63.477,0.977,0
1664462252.073,-18.066,-32.227,66.895,6.348,0
1664462252.077,-42.480,-35.645,72.754,-16.602,0
1664462252.081,-48.340,-41.504,71.289,-23.438,0
1664462252.085,-31.738,-40.039,72.266,-8.789,0
1664462252.089,-19.043,-36.133,76.660,-1.953,0
1664462252.091,-44.434,-34.180,78.125,-17.578,0
1664462252.095,-59.082,-35.645,76.172,-17.090,0
1664462252.099,-48.828,-35.156,75.195,-4.883,0
1664462252.103,-20.508,-34.668,76.172,-1.465,0
1664462252.107,-23.926,-34.180,83.008,-14.160,0
1664462252.111,-42.969,-28.809,83.008,-7.812,0
1664462252.115,-51.270,-31.738,72.266,6.836,0
1664462252.118,-25.391,-35.156,70.801,6.348,0
1664462252.122,-19.043,-34.668,74.219,-4.395,0
1664462252.126,-39.062,-38.574,75.684,-20.508,0
1664462252.130,-43.945,-37.598,69.824,-23.926,0
1664462252.134,-19.043,-37.109,68.848,-15.137,0
1664462252.135,-6.348,-36.621,71.777,-14.160,0
1664462252.139,-36.621,-34.180,69.824,-17.578,0
1664462252.143,-40.039,-31.738,72.266,-14.648,0
1664462252.147,-24.902,-27.832,74.219,-10.254,0
1664462252.151,-7.324,-22.461,77.637,-2.930,0
1664462252.155,-28.809,-16.602,73.730,-1.953,0
1664462252.159,-46.875,-21.973,61.035,-10.254,0
1664462252.162,-35.645,-33.691,56.152,-20.508,0
1664462252.166,-8.301,-35.156,59.082,-10.254,0
1664462252.170,-25.879,-41.504,60.547,-4.883,0
1664462252.174,-56.152,-40.039,65.918,-5.859,0
1664462252.178,-47.363,-29.297,73.242,-13.184,0
1664462252.196,-18.555,-31.250,74.707,-9.277,0
1664462252.200,-23.438,-34.668,65.918,-13.184,0
1664462252.204,-42.480,-30.762,71.289,-16.113,0
1664462252.208,-41.016,-31.250,81.543,-8.301,0
1664462252.212,-11.230,-30.273,77.637,6.348,0
1664462252.216,2.930,-21.484,77.148,17.090,0
1664462252.220,-31.738,-24.414,78.613,-7.324,0
1664462252.223,-42.969,-31.738,70.312,-20.020,0
1664462252.227,-25.879,-37.598,70.312,-5.859,0
1664462252.231,-4.395,-37.109,74.707,13.672,0
1664462252.235,-22.949,-30.273,83.008,-0.977,0
1664462252.239,-35.156,-28.809,78.613,-16.113,0
1664462252.242,-21.484,-25.391,68.359,-3.906,0
1664462252.246,3.906,-20.508,71.777,11.719,0
1664462252.250,-14.648,-20.508,72.754,6.836,0
1664462252.254,-39.551,-24.902,76.172,-3.906,0
1664462252.258,-26.855,-31.250,75.195,-0.977,0
1664462252.262,-6.836,-27.832,62.988,12.207,0
1664462252.266,-14.160,-29.297,55.176,1.465,0
1664462252.269,-38.574,-34.180,62.500,-18.555,0
1664462252.273,-41.016,-30.273,74.707,-9.277,0
1664462252.277,-19.043,-29.785,71.777,3.418,0
1664462252.281,0.000,-31.250,74.219,0.488,0
1664462252.285,-27.832,-33.203,78.613,-8.789,0
1664462252.301,-41.992,-36.621,76.172,-10.742,0
1664462252.305,-22.461,-38.086,71.289,-8.301,0
1664462252.309,0.488,-41.504,75.195,2.930,0
1664462252.313,-26.367,-43.945,81.543,-2.441,0
1664462252.317,-46.875,-41.992,75.684,-19.043,0
1664462252.321,-34.180,-35.156,72.266,-15.625,0
1664462252.325,-4.883,-29.785,81.055,6.836,0
1664462252.328,-17.090,-32.715,78.613,-0.488,0
1664462252.332,-51.270,-39.062,68.359,-10.254,0
1664462252.336,-43.945,-36.621,72.754,-8.301,0
1664462252.340,-13.672,-36.133,64.941,-6.836,0
1664462252.344,-13.184,-36.621,61.523,-7.812,0
1664462252.331,-42.480,-37.109,61.035,-19.531,0
1664462252.335,-40.039,-37.598,71.777,-23.438,0
1664462252.339,-3.906,-31.250,78.613,-10.254,0
1664462252.343,26.855,-23.438,61.035,16.113,0
1664462252.347,0.977,-25.391,67.871,14.648,0
1664462252.351,-30.762,-33.203,83.496,-7.324,0
1664462252.355,-32.715,-40.527,82.031,-19.043,0
1664462252.358,-20.508,-38.574,77.637,-13.672,0
1664462252.362,-49.316,-46.387,80.078,-25.879,0
1664462252.366,-71.777,-57.129,80.078,-39.551,0
1664462252.370,-62.012,-53.711,68.848,-33.691,0
1664462252.374,-29.297,-49.805,68.848,-10.742,0
1664462252.377,-40.527,-51.270,96.680,-13.672,0
1664462252.381,-67.871,-52.246,111.816,-29.785,0
1664462252.385,-62.500,-44.922,110.352,-13.184,0
1664462252.389,-38.574,-45.410,107.422,3.906,0
1664462252.393,-36.133,-57.617,112.793,1.465,0
1664462252.397,-61.523,-62.988,99.609,-5.371,0
1664462252.401,-63.965,-60.059,83.008,-17.090,0
1664462252.404,-43.945,-57.129,80.078,-7.812,0
1664462252.408,-26.855,-53.711,85.938,-7.324,0
1664462252.412,-45.898,-47.363,96.191,-23.926,0
1664462252.416,-53.223,-43.457,98.633,-8.789,0
1664462252.420,-34.668,-39.062,98.145,5.371,0
1664462252.421,-1.465,-36.621,94.727,12.207,0
1664462252.425,-14.648,-45.898,94.727,-0.488,0
1664462252.429,-30.273,-43.457,97.168,-4.395,0
1664462252.433,-18.066,-35.645,96.680,9.277,0
1664462252.437,6.836,-31.738,92.285,24.414,0
1664462252.441,-5.371,-32.227,95.215,26.367,0
1664462252.445,-39.062,-34.668,84.473,20.996,0
1664462252.448,-44.434,-32.227,74.219,25.391,0
1664462252.452,-6.836,-32.715,90.332,21.484,0
1664462252.456,11.719,-32.227,95.215,22.461,0
1664462252.460,-29.785,-37.598,86.426,3.906,0
1664462252.464,-29.297,-34.180,93.750,3.906,0
1664462252.465,1.465,-26.367,104.004,25.879,0
1664462252.469,13.184,-29.297,89.844,32.227,0
1664462252.473,-12.207,-27.832,81.543,16.602,0
1664462252.477,-24.902,-29.785,84.473,0.488,0
1664462252.481,-21.484,-30.762,83.496,-1.953,0
1664462252.485,5.859,-27.832,70.312,4.883,0
1664462252.489,-2.441,-29.785,68.359,10.254,0
1664462252.492,-28.809,-35.156,92.285,5.859,0
1664462252.496,-20.508,-28.320,98.633,5.859,0
1664462252.500,1.465,-24.902,89.355,18.066,0
1664462252.504,-0.488,-28.320,81.543,27.344,0
1664462252.508,-20.508,-30.762,81.543,18.066,0
1664462252.511,-27.832,-30.762,71.289,10.254,0
1664462252.515,-6.348,-29.785,70.312,16.113,0
1664462252.519,4.883,-32.715,81.543,10.742,0
1664462252.523,-25.391,-32.715,77.148,-7.324,0
1664462252.527,-32.227,-29.785,75.195,-3.906,0
1664462252.531,-10.742,-28.320,87.402,11.719,0
1664462252.535,5.859,-28.809,87.891,21.973,0
1664462252.538,-11.719,-25.391,83.496,3.906,0
1664462252.542,-24.902,-23.438,83.008,-1.953,0
1664462252.546,-24.414,-28.320,82.031,3.906,0
1664462252.550,3.418,-25.391,83.008,10.742,0
1664462252.554,-2.930,-20.020,84.961,3.418,0
1664462252.570,-28.320,-23.438,85.938,5.859,0
1664462252.574,-28.320,-29.297,76.172,11.719,0
1664462252.578,-8.789,-32.715,61.035,0.000,0
1664462252.582,-10.254,-28.320,67.383,-11.230,0
1664462252.586,-44.434,-23.438,74.707,-19.043,0
1664462252.590,-46.875,-30.273,65.918,-10.254,0
1664462252.594,-16.602,-31.250,75.195,-5.371,0
1664462252.597,1.465,-23.926,84.961,-3.906,0
1664462252.601,-26.367,-25.879,83.008,-1.465,0
1664462252.605,-48.340,-31.250,73.730,-1.465,0
1664462252.609,-35.645,-30.762,60.547,-11.230,0
1664462252.613,-7.812,-30.762,60.059,-0.488,0
1664462252.615,-21.484,-29.297,70.801,6.836,0
1664462252.619,-33.691,-27.832,75.684,-2.930,0
1664462252.623,-28.320,-28.320,69.824,-12.207,0
1664462252.627,-7.324,-31.250,68.359,2.930,0
1664462252.631,-10.742,-35.156,76.172,10.254,0
1664462252.635,-26.855,-28.809,78.613,2.930,0
1664462252.639,-27.344,-28.809,75.684,-9.277,0
1664462252.642,-9.277,-31.250,75.195,-7.324,0
1664462252.646,3.418,-21.484,72.754,8.301,0
1664462252.650,-31.738,-20.508,70.312,2.441,0
1664462252.654,-39.551,-21.484,77.148,-12.207,0
1664462252.658,-8.301,-23.438,67.871,2.930,0
1664462252.661,13.184,-27.344,64.453,10.254,0
1664462252.665,-12.207,-31.250,66.895,-11.230,0
1664462252.669,-20.020,-26.855,73.730,-12.207,0
1664462252.673,-4.883,-16.113,84.473,0.977,0
1664462252.677,4.883,-20.508,85.449,1.465,0
1664462252.681,-18.555,-29.297,71.777,-6.836,0
1664462252.685,-32.227,-32.227,66.895,-2.930,0
1664462252.688,-31.738,-40.527,60.059,1.953,0
1664462252.692,-18.555,-40.039,53.711,12.207,0
1664462252.696,-18.066,-34.668,68.848,-0.488,0
1664462252.700,-32.227,-32.227,81.543,-15.625,0
1664462252.704,-28.809,-27.344,79.590,-11.719,0
1664462252.706,-12.695,-25.879,71.777,-12.207,0
1664462252.710,-5.859,-21.973,73.242,-7.812,0
1664462252.714,-27.832,-20.996,68.848,-15.137,0
1664462252.718,-39.062,-28.320,57.617,-13.184,0
1664462252.722,-21.484,-36.133,65.918,-3.906,0
1664462252.726,0.488,-35.645,72.754,7.812,0
1664462252.730,-26.367,-31.250,75.195,-5.859,0
1664462252.733,-38.574,-26.855,76.172,-8.301,0
1664462252.737,-30.762,-29.785,68.848,8.789,0
1664462252.741,-4.395,-30.762,60.059,7.812,0
1664462252.745,-13.184,-30.273,53.711,-3.418,0
1664462252.749,-36.621,-35.645,60.059,-13.672,0
1664462252.750,-26.855,-37.109,66.895,-11.719,0
1664462252.754,-8.301,-31.738,74.219,1.465,0
1664462252.758,-15.137,-31.250,73.242,-0.488,0
1664462252.762,-38.086,-31.250,66.895,-12.207,0
1664462252.766,-37.109,-28.809,68.359,-15.625,0
1664462252.770,-8.789,-27.344,67.871,-0.488,0
1664462252.774,-0.488,-26.855,66.895,7.812,0
1664462252.777,-33.691,-26.367,55.176,4.883,0
1664462252.781,-46.875,-29.297,62.012,-8.789,0
1664462252.785,-29.297,-37.109,70.801,-16.113,0
1664462252.789,-4.395,-37.109,63.965,-1.953,0
1664462252.793,-28.809,-35.645,63.477,0.488,0
1664462252.795,-37.109,-37.109,62.988,1.953,0
1664462252.799,-15.137,-34.180,71.289,-4.395,0
1664462252.803,7.324,-32.715,78.125,-2.930,0
1664462252.807,-10.254,-31.250,82.520,-3.418,0
1664462252.811,-30.762,-28.809,73.242,-11.230,0
1664462252.815,-27.344,-36.621,63.965,-14.160,0
1664462252.819,-6.836,-38.574,68.359,0.977,0
1664462252.822,-2.441,-30.273,69.824,13.672,0
1664462252.826,-20.508,-23.926,72.266,0.488,0
1664462252.830,-25.879,-24.902,70.312,-12.695,0
1664462252.834,-9.277,-24.902,72.754,-3.906,0
1664462252.838,1.953,-24.902,82.031,0.977,0
1664462252.840,-13.672,-20.996,90.332,-4.395,0
1664462252.844,-21.484,-20.020,83.496,9.277,0
1664462252.848,-4.883,-30.273,66.895,24.902,0
1664462252.852,15.137,-29.785,63.477,27.832,0
1664462252.856,-5.371,-25.879,65.918,8.301,0
1664462252.860,-19.531,-23.438,64.453,3.418,0
1664462252.864,-13.184,-24.902,57.617,13.184,0
1664462252.867,7.324,-24.414,58.105,-2.930,0
1664462252.871,-5.371,-21.973,62.500,-14.160,0
1664462252.875,-24.902,-21.484,64.453,-6.836,0
1664462252.879,-11.719,-26.855,69.824,8.301,0
1664462252.883,20.020,-35.645,65.430,14.160,0
1664462252.885,24.902,-22.949,69.336,11.230,0
1664462252.889,-4.883,-17.090,73.730,3.906,0
1664462252.893,-13.184,-21.484,68.359,6.836,0
1664462252.897,7.324,-20.996,71.777,24.414,0
1664462252.901,17.090,-25.391,66.406,27.832,0
1664462252.905,-6.348,-23.926,68.848,20.508,0
1664462252.909,-17.578,-25.879,83.984,16.602,0
1664462252.912,-9.766,-32.715,84.473,6.836,0
1664462252.916,14.648,-29.297,75.684,11.719,0
1664462252.920,-1.953,-27.832,66.895,1.953,0
1664462252.924,-20.020,-26.855,76.660,-2.441,0
1664462252.928,-16.113,-24.414,86.426,-5.859,0
1664462252.945,9.766,-21.484,78.125,4.883,0
1664462252.949,0.488,-24.414,64.453,6.836,0
1664462252.953,-26.855,-29.297,61.035,-4.395,0
1664462252.957,-19.531,-28.809,66.895,-3.418,0
1664462252.961,7.324,-26.855,65.918,0.000,0
1664462252.965,3.418,-26.367,60.059,2.930,0
1664462252.969,-26.855,-31.250,65.918,-9.277,0
1664462252.972,-28.809,-32.715,66.895,-19.531,0
1664462252.976,-12.207,-25.879,64.941,-6.348,0
1664462252.980,1.465,-26.367,62.012,15.625,0
1664462252.984,-23.438,-30.273,66.406,-8.789,0
1664462252.988,-27.832,-22.949,68.848,-17.578,0
1664462252.991,-15.137,-25.391,66.895,-8.301,0
1664462252.995,0.488,-33.691,66.895,-0.977,0
1664462252.999,-12.695,-24.902,68.359,-5.859,0
1664462253.003,-34.668,-25.879,64.453,-19.531,0
1664462253.007,-29.297,-30.762,62.988,-21.973,0
1664462253.011,-7.324,-31.738,63.965,-9.277,0
1664462253.015,-10.742,-35.645,59.082,-12.695,0
1664462253.018,-34.180,-33.691,50.293,-24.414,0
1664462253.022,-37.598,-29.297,37.598,-9.766,0
1664462253.026,-9.766,-25.879,44.434,12.207,0
1664462253.030,-2.441,-31.738,55.664,-2.441,0
1664462253.034,-34.180,-37.109,59.082,-18.066,0
1664462253.036,-35.645,-33.691,59.082,-17.090,0
1664462253.040,-22.461,-35.645,60.547,-13.184,0
1664462253.044,-12.695,-37.109,59.570,-2.930,0
1664462253.048,-36.621,-33.691,51.758,-2.441,0
1664462253.052,-47.852,-32.227,60.547,-1.953,0
1664462253.056,-34.668,-33.691,60.547,-0.488,0
1664462253.060,-13.672,-36.133,56.152,-0.488,0
1664462253.063,-19.531,-32.227,59.082,-3.418,0
1664462253.067,-45.898,-30.762,48.828,5.371,0
1664462253.071,-46.875,-31.250,61.523,3.906,0
1664462253.075,-11.230,-26.367,72.266,4.883,0
1664462253.079,-20.508,-32.227,60.547,4.883,0
1664462253.081,-45.898,-34.668,61.523,-4.883,0
1664462253.085,-33.691,-30.273,62.500,-13.184,0
1664462253.089,-10.254,-34.180,56.152,-6.836,0
1664462253.093,0.977,-36.133,59.082,4.395,0
1664462253.097,-20.508,-33.203,55.176,-13.672,0
1664462253.101,-33.691,-30.273,51.758,-22.461,0
1664462253.105,-16.113,-27.832,67.383,-11.719,0
1664462253.108,7.324,-27.344,68.359,9.766,0
1664462253.112,-16.113,-23.438,63.965,13.672,0
1664462253.116,-32.715,-25.391,65.918,-2.930,0
1664462253.120,-23.438,-30.762,56.641,-2.930,0
1664462253.124,2.930,-29.785,50.781,5.859,0
1664462253.126,-5.371,-27.832,53.223,6.348,0
1664462253.130,-28.320,-25.879,57.129,12.695,0
1664462253.134,-33.203,-27.344,59.570,3.418,0
1664462253.138,-16.113,-29.785,60.059,-11.230,0
1664462253.142,-15.625,-28.809,65.918,-20.996,0
1664462253.146,-35.645,-19.043,76.172,-20.508,0
1664462253.150,-28.809,-18.555,73.730,-9.277,0
1664462253.153,-10.742,-24.902,56.152,6.348,0
1664462253.157,-5.371,-30.273,55.176,11.719,0
1664462253.161,-25.391,-31.738,64.941,-6.836,0
1664462253.165,-32.715,-27.832,68.359,-9.277,0
1664462253.169,-24.414,-31.250,60.059,0.977,0
1664462253.171,-2.441,-28.809,68.848,2.441,0
1664462253.175,-18.066,-24.414,80.566,-11.719,0
1664462253.179,-33.691,-25.879,75.684,-9.766,0
1664462253.183,-17.578,-29.785,70.801,9.766,0
1664462253.187,6.348,-31.250,72.266,28.320,0
1664462253.191,-2.930,-29.785,79.102,22.949,0
1664462253.195,-21.484,-22.949,73.242,9.766,0
1664462253.198,-26.855,-20.020,46.875,3.906,0
1664462253.202,-7.324,-20.996,49.316,-2.441,0
1664462253.206,-0.977,-22.949,65.918,-7.812,0
1664462253.210,-32.715,-30.273,69.824,-18.066,0
1664462253.214,-30.762,-26.855,70.312,-8.301,0
1664462253.216,-6.836,-24.414,68.359,1.953,0
1664462253.220,0.000,-27.832,68.848,5.371,0
1664462253.224,-20.020,-33.691,62.988,4.395,0
1664462253.228,-27.344,-33.691,55.664,0.000,0
1664462253.232,-13.672,-23.438,63.965,3.418,0
1664462253.236,11.719,-28.809,60.059,14.160,0
1664462253.240,-15.625,-39.062,46.387,11.230,0
1664462253.243,-36.621,-37.598,61.035,-3.418,0
1664462253.247,-12.207,-34.668,72.754,-15.137,0
1664462253.251,9.766,-30.762,68.848,-7.324,0
1664462253.255,-2.930,-29.297,66.895,-6.348,0
1664462253.259,-28.809,-32.715,65.430,-19.043,0
1664462253.261,-25.879,-29.297,60.547,-13.184,0
1664462253.265,6.348,-26.855,56.152,3.906,0
1664462253.269,11.719,-26.367,55.176,5.859,0
1664462253.273,-15.625,-22.461,71.289,4.395,0
1664462253.277,-15.137,-28.320,69.824,8.789,0
1664462253.281,-9.766,-37.598,44.922,10.254,0
1664462253.285,-13.184,-43.945,56.641,10.742,0
1664462253.288,-33.691,-47.363,74.707,-11.719,0
1664462253.292,-44.434,-41.016,70.801,-28.320,0
1664462253.296,-34.180,-31.250,63.477,-16.113,0
1664462253.300,-0.977,-33.691,62.988,4.883,0
1664462253.304,-17.090,-33.203,70.312,-7.812,0
1664462253.321,-45.898,-35.645,63.477,-18.555,0
1664462253.325,-37.109,-45.410,50.781,-15.625,0
1664462253.329,-7.812,-41.992,55.176,-0.977,0
1664462253.333,-6.836,-38.086,62.500,8.789,0
1664462253.337,-27.344,-38.086,64.941,-7.324,0
1664462253.341,-30.762,-37.598,61.523,-6.836,0
1664462253.345,-13.184,-39.551,68.359,1.953,0
1664462253.348,-7.812,-38.574,65.918,-13.184,0
1664462253.352,-34.668,-35.156,53.223,-20.508,0
1664462253.356,-30.762,-32.227,52.246,-0.488,0
1664462253.360,-12.207,-33.691,64.941,-1.465,0
1664462253.364,4.395,-37.109,68.359,3.906,0
1664462253.367,-11.719,-34.668,75.195,6.348,0
1664462253.371,-30.762,-31.738,74.219,-10.254,0
1664462253.375,-20.996,-36.133,65.430,-11.230,0
1664462253.379,6.348,-34.668,64.453,5.859,0
1664462253.383,-7.812,-31.738,71.777,-0.488,0
1664462253.387,-30.273,-34.668,64.453,-9.766,0
1664462253.391,-24.414,-32.715,53.711,2.930,0
1664462253.394,0.488,-33.203,57.129,15.137,0
1664462253.398,-16.602,-39.062,52.246,11.719,0
1664462253.402,-48.340,-39.062,64.453,5.859,0
1664462253.406,-41.504,-36.133,79.102,-13.184,0
1664462253.410,-21.484,-38.574,68.848,-16.113,0
1664462253.411,-10.254,-36.621,67.383,-4.883,0
1664462253.415,-23.926,-35.156,73.730,-11.230,0
1664462253.419,-35.156,-34.180,62.500,-15.625,0
1664462253.423,-21.484,-30.762,58.105,-7.324,0
1664462253.427,8.301,-28.809,65.430,0.000,0
1664462253.431,-11.719,-32.227,58.105,-17.090,0
1664462253.435,-36.621,-38.574,56.152,-27.344,0
1664462253.438,-37.109,-37.109,62.500,-31.738,0
1664462253.442,-5.859,-31.250,62.500,-7.324,0
1664462253.446,-18.555,-37.109,71.289,-19.043,0
1664462253.450,-47.852,-39.551,70.801,-36.133,0
1664462253.454,-23.438,-27.344,57.617,-3.906,0
1664462253.455,12.207,-26.367,57.129,11.719,0
1664462253.459,-4.395,-36.133,71.777,-8.301,0
1664462253.463,-53.223,-44.922,77.148,-36.133,0
1664462253.467,-67.871,-40.039,66.406,-43.945,0
1664462253.471,-51.270,-32.715,57.617,-48.340,0
1664462253.475,-46.875,-38.086,55.176,-48.340,0
1664462253.479,-80.078,-41.016,65.918,-61.523,0
1664462253.482,-88.379,-41.504,66.406,-61.523,0
1664462253.486,-73.242,-43.945,45.410,-45.898,0
1664462253.490,-47.363,-43.457,47.852,-42.480,0
1664462253.494,-61.035,-42.480,63.965,-44.922,0
1664462253.498,-77.637,-43.945,63.965,-41.504,0
1664462253.500,-62.988,-48.828,58.594,-36.133,0
1664462253.504,-25.879,-44.922,59.570,-13.672,0
1664462253.508,-25.391,-39.062,54.199,-5.371,0
1664462253.512,-50.293,-39.551,57.129,-19.043,0
1664462253.516,-43.457,-35.156,75.195,-21.484,0
1664462253.520,-12.695,-31.250,74.219,-8.301,0
1664462253.524,-8.789,-32.227,62.988,-12.207,0
1664462253.527,-37.109,-32.227,53.223,-14.648,0
1664462253.531,-33.203,-32.715,57.129,-13.672,0
1664462253.535,-7.812,-32.227,65.430,-18.555,0
1664462253.539,-4.883,-30.762,64.453,-24.414,0
1664462253.543,-38.086,-35.156,65.430,-40.039,0
1664462253.545,-44.922,-31.738,74.707,-30.762,0
1664462253.549,-33.203,-24.414,74.707,-16.113,0
1664462253.553,-11.230,-27.832,53.711,-9.277,0
1664462253.557,-24.414,-36.621,44.922,-20.020,0
1664462253.561,-45.410,-35.156,47.363,-27.344,0
1664462253.565,-41.016,-34.180,51.758,-12.695,0
1664462253.569,-27.832,-39.551,58.594,-1.465,0
1664462253.572,-40.527,-39.062,60.059,-11.230,0
1664462253.576,-53.711,-34.180,67.383,-34.180,0
1664462253.580,-41.504,-27.344,69.824,-29.297,0
1664462253.584,-17.090,-28.320,69.336,-8.789,0
1664462253.588,-10.254,-31.250,78.613,-10.254,0
1664462253.591,-37.109,-37.598,76.660,-25.879,0
1664462253.595,-42.480,-34.668,63.477,-21.484,0
1664462253.599,-24.902,-22.949,53.223,-3.906,0
1664462253.603,-11.719,-26.855,58.594,3.418,0
1664462253.607,-38.086,-33.691,69.336,-11.719,0
1664462253.611,-56.641,-27.832,71.777,-10.742,0
1664462253.615,-50.293,-24.414,62.012,5.859,0
1664462253.618,-19.531,-31.738,66.406,3.906,0
1664462253.622,-19.531,-29.297,75.684,-15.137,0
1664462253.626,-28.809,-15.137,72.266,-10.254,0
1664462253.630,-27.832,-19.043,61.035,-8.301,0
1664462253.634,-8.789,-25.879,59.082,-7.812,0
1664462253.668,-3.906,-26.367,61.035,-14.160,0
1664462253.672,-27.344,-30.273,55.176,-26.855,0
1664462253.676,-24.902,-27.344,58.594,-22.949,0
1664462253.680,-0.977,-26.367,53.711,-6.348,0
1664462253.684,3.418,-28.809,51.270,2.930,0
1664462253.688,-27.344,-26.367,57.129,-9.277,0
1664462253.692,-30.762,-25.879,62.988,-13.672,0
1664462253.695,-15.137,-34.180,59.570,-20.508,0
1664462253.699,-2.930,-39.062,50.293,-21.973,0
1664462253.703,-22.461,-36.621,50.781,-21.484,0
1664462253.707,-32.227,-36.133,62.500,-15.625,0
1664462253.711,-19.043,-30.273,73.730,-5.371,0
1664462253.696,0.977,-22.949,68.359,11.230,0
1664462253.700,-27.344,-28.320,66.895,-0.488,0
1664462253.704,-58.594,-33.203,68.359,-17.578,0
1664462253.708,-42.480,-30.273,66.895,-4.395,0
1664462253.712,-9.277,-27.832,76.172,15.625,0
1664462253.716,-9.766,-27.832,79.102,34.180,0
1664462253.720,-40.527,-27.832,65.918,22.461,0
1664462253.723,-38.086,-29.785,63.965,1.465,0
1664462253.727,-11.230,-29.785,69.824,6.348,0
1664462253.731,-3.906,-27.344,63.477,21.973,0
1664462253.735,-33.691,-27.344,63.965,0.977,0
1664462253.739,-40.527,-27.344,64.453,-12.207,0
1664462253.741,-17.578,-28.809,63.477,5.859,0
1664462253.745,8.789,-25.391,70.312,14.160,0
1664462253.749,-14.160,-18.555,79.590,7.324,0
1664462253.753,-39.062,-21.484,73.730,0.977,0
1664462253.757,-25.391,-26.367,70.801,2.930,0
1664462253.761,-2.930,-26.367,70.801,10.254,0
1664462253.765,-7.324,-22.949,71.289,-0.977,0
1664462253.768,-16.113,-23.926,71.777,-14.160,0
1664462253.772,-20.020,-27.344,64.941,-2.441,0
1664462253.776,-2.930,-25.879,70.312,10.254,0
1664462253.780,5.371,-22.949,77.637,-3.906,0
1664462253.784,-12.207,-21.484,72.754,-15.625,0
1664462253.785,-10.254,-20.020,67.383,-9.766,0
1664462253.789,0.977,-21.484,79.102,-3.906,0
1664462253.793,-2.930,-29.297,82.520,-6.348,0
1664462253.797,-36.621,-32.715,64.941,-12.207,0
1664462253.801,-53.711,-33.203,62.012,-14.160,0
1664462253.805,-41.504,-28.809,74.707,-14.160,0
1664462253.809,-8.789,-24.902,76.660,-3.418,0
1664462253.812,-25.391,-29.297,72.754,-12.207,0
1664462253.816,-50.293,-26.367,70.801,-6.348,0
1664462253.820,-44.922,-29.297,73.730,-5.859,0
1664462253.824,-9.766,-35.156,74.219,-4.883,0
1664462253.828,-11.230,-30.762,77.148,-2.441,0
1664462253.830,-44.922,-36.621,74.707,-8.789,0
1664462253.834,-44.922,-41.992,66.406,-16.602,0
1664462253.838,-19.531,-40.039,64.941,-8.789,0
1664462253.842,-11.230,-37.598,72.266,-4.395,0
1664462253.846,-38.574,-39.062,78.125,-18.555,0
1664462253.850,-42.480,-41.016,68.848,-13.672,0
1664462253.854,-18.555,-38.086,72.266,-0.977,0
1664462253.857,1.465,-38.086,73.730,7.812,0
1664462253.861,-17.090,-40.527,67.871,10.254,0
1664462253.865,-36.621,-36.133,78.125,-2.930,0
1664462253.869,-22.461,-28.809,79.590,-7.812,0
1664462253.873,1.953,-24.414,83.984,3.906,0
1664462253.875,-16.113,-25.879,77.148,-8.301,0
1664462253.879,-35.156,-23.438,64.453,-21.973,0
1664462253.883,-29.297,-26.855,58.105,-8.301,0
1664462253.887,7.324,-32.715,60.547,11.719,0
1664462253.891,10.742,-23.438,73.730,6.348,0
1664462253.895,-35.156,-25.879,72.266,-9.766,0
1664462253.899,-46.875,-29.785,70.312,-17.090,0
1664462253.902,-15.625,-31.250,57.617,-4.883,0
1664462253.906,-1.953,-32.715,59.570,-0.488,0
1664462253.910,-29.297,-29.785,80.078,-19.531,0
1664462253.914,-41.016,-30.273,76.172,-12.207,0
1664462253.918,-26.855,-30.762,67.383,1.465,0
1664462253.921,-8.789,-36.621,72.754,2.930,0
1664462253.925,-30.762,-33.203,75.195,-8.789,0
1664462253.929,-46.875,-30.762,66.895,-7.324,0
1664462253.933,-39.551,-34.180,59.082,4.883,0
1664462253.937,-15.137,-32.715,58.594,10.742,0
1664462253.941,-28.809,-35.645,62.500,4.395,0
1664462253.945,-52.246,-35.156,67.383,-1.465,0
1664462253.948,-44.434,-30.762,69.336,8.789,0
1664462253.952,-14.160,-28.320,79.102,12.207,0
1664462253.956,-17.578,-33.203,76.172,-1.465,0
1664462253.960,-40.039,-32.227,65.918,-7.324,0
1664462253.964,-40.527,-24.902,62.012,-9.277,0
1664462253.965,-20.508,-23.926,63.477,-10.742,0
1664462253.969,-4.395,-17.578,69.336,-0.977,0
1664462253.973,-30.273,-15.625,66.895,-5.371,0
1664462253.977,-41.504,-20.020,64.453,-8.789,0
1664462253.981,-19.531,-22.949,62.012,0.000,0
1664462253.985,2.441,-25.879,59.570,4.883,0
1664462253.989,-27.344,-28.809,60.059,-7.324,0
1664462253.992,-41.504,-27.832,67.383,-16.602,0
1664462253.996,-22.461,-20.508,76.172,-10.254,0
1664462254.000,0.977,-21.973,71.289,4.395,0
1664462254.004,-17.578,-30.273,68.359,-4.395,0
1664462254.008,-49.805,-32.227,69.824,-20.020,0
1664462254.010,-41.992,-31.250,66.406,-14.648,0
1664462254.014,-9.277,-33.691,62.988,7.812,0
1664462254.018,-9.277,-37.109,57.129,2.930,0
1664462254.022,-37.109,-37.598,59.570,-12.207,0
1664462254.026,-45.898,-36.133,72.266,-5.859,0
1664462254.030,-24.902,-37.598,61.035,4.395,0
1664462254.034,-19.043,-33.691,64.941,12.207,0
1664462254.037,-41.016,-24.902,83.008,-6.348,0
1664462254.041,-46.387,-27.832,66.406,-14.648,0
1664462254.045,-26.367,-32.715,58.105,-0.488,0
1664462254.049,-8.789,-32.715,63.965,9.277,0
1664462254.053,-32.227,-33.691,62.012,0.488,0
1664462254.070,-41.992,-31.738,60.059,6.348,0
1664462254.074,-34.668,-35.156,61.523,13.184,0
1664462254.078,-6.348,-38.574,65.918,10.742,0
1664462254.082,-9.277,-36.133,75.684,1.465,0
1664462254.086,-29.297,-36.133,79.102,1.465,0
1664462254.090,-24.902,-33.203,73.242,13.672,0
1664462254.094,-7.324,-26.855,77.637,22.461,0
1664462254.097,-6.836,-22.949,78.613,22.461,0
1664462254.101,-28.809,-25.879,74.707,6.348,0
1664462254.105,-31.738,-29.785,63.965,12.207,0
1664462254.109,-7.812,-31.250,62.988,12.207,0
1664462254.113,8.301,-30.273,74.219,4.883,0
1664462254.116,-14.160,-26.367,73.730,7.324,0
1664462254.120,-26.367,-32.227,70.801,6.348,0
1664462254.124,-14.160,-34.180,69.824,1.953,0
1664462254.128,8.789,-27.832,63.477,2.930,0
1664462254.132,-17.090,-29.297,63.477,-10.254,0
1664462254.136,-36.621,-30.762,61.035,-16.113,0
1664462254.140,-22.461,-27.832,65.430,-7.324,0
1664462254.143,4.883,-29.297,65.918,1.953,0
1664462254.147,1.465,-27.832,54.688,3.906,0
1664462254.151,-22.949,-29.785,58.105,-4.395,0
1664462254.155,-28.320,-34.180,64.941,-16.602,0
1664462254.159,-9.766,-35.645,63.477,-18.066,0
1664462254.176,-3.418,-29.297,64.453,-11.719,0
1664462254.180,-38.574,-31.738,59.082,-23.438,0
1664462254.184,-45.410,-34.668,54.199,-28.320,0
1664462254.188,-14.160,-29.785,54.199,-1.465,0
1664462254.192,8.789,-26.367,61.523,7.812,0
1664462254.196,-8.301,-16.602,64.941,-13.184,0
1664462254.200,-26.855,-18.555,56.641,-24.902,0
1664462254.203,-19.043,-23.438,60.059,-19.043,0
1664462254.207,2.441,-28.320,48.828,5.859,0
1664462254.211,-19.531,-36.133,46.387,-5.371,0
1664462254.215,-38.086,-30.762,57.129,-24.902,0
1664462254.219,-27.832,-26.855,61.523,-17.578,0
1664462254.206,6.836,-23.438,71.289,-0.977,0
1664462254.210,2.441,-25.879,70.312,-1.465,0
1664462254.214,-21.484,-25.391,65.918,-5.371,0
1664462254.218,-15.625,-25.879,67.871,1.465,0
1664462254.222,12.207,-24.902,62.988,18.066,0
1664462254.226,12.207,-20.508,59.570,30.273,0
1664462254.230,-18.066,-20.996,63.965,7.324,0
1664462254.233,-22.461,-26.855,64.941,-8.789,0
1664462254.237,-10.742,-26.855,53.711,-2.930,0
1664462254.241,10.742,-24.414,61.035,3.906,0
1664462254.245,1.465,-24.902,78.125,-5.859,0
1664462254.249,-6.348,-23.926,66.406,7.324,0
1664462254.251,-1.465,-25.391,52.246,12.695,0
1664462254.255,11.230,-30.762,70.312,-6.348,0
1664462254.259,-10.254,-35.156,78.613,-15.137,0
1664462254.263,-29.785,-29.785,77.148,-10.742,0
1664462254.267,-15.625,-21.484,70.312,-1.953,0
1664462254.271,14.160,-26.367,64.453,7.812,0
1664462254.275,5.371,-29.785,69.824,-0.977,0
1664462254.278,-22.461,-28.809,71.777,-0.488,0
1664462254.282,-19.531,-24.414,74.707,0.488,0
1664462254.286,-2.441,-23.438,80.566,-5.371,0
1664462254.290,0.000,-26.855,76.660,-12.695,0
1664462254.294,-19.043,-29.785,64.941,-23.438,0
1664462254.296,-20.996,-28.809,70.312,-21.484,0
1664462254.300,-9.766,-20.508,76.660,-11.719,0
1664462254.304,3.906,-20.020,73.242,2.441,0
1664462254.308,-20.020,-29.785,67.871,-17.578,0
1664462254.312,-29.785,-28.320,65.430,-25.391,0
1664462254.316,-22.949,-28.320,70.312,-17.578,0
1664462254.320,-1.953,-33.691,76.660,-6.348,0
1664462254.323,-5.859,-29.297,75.195,8.301,0
1664462254.327,-28.809,-30.762,64.453,-6.836,0
1664462254.331,-27.344,-32.227,70.801,-9.766,0
1664462254.335,-5.371,-30.762,79.102,-0.488,0
1664462254.339,-1.465,-34.180,70.312,-4.395,0
1664462254.341,-38.086,-29.297,67.383,-14.648,0
1664462254.345,-47.363,-27.344,66.895,-17.090,0
1664462254.349,-20.508,-31.250,63.965,-6.348,0
1664462254.353,-7.812,-28.809,69.336,6.836,0
1664462254.357,-37.109,-30.273,70.312,-10.742,0
1664462254.361,-48.828,-31.250,64.941,-17.578,0
1664462254.365,-34.180,-33.691,60.547,0.977,0
1664462254.368,-15.625,-33.691,61.523,0.000,0
1664462254.372,-26.367,-28.809,62.012,-14.648,0
1664462254.376,-19.531,-21.484,58.594,5.371,0
1664462254.380,-15.137,-20.508,59.570,19.531,0
1664462254.384,-17.578,-29.785,68.848,-7.324,0
1664462254.386,-30.273,-36.133,70.312,-31.250,0
1664462254.390,-47.852,-33.691,63.965,-26.855,0
1664462254.394,-57.617,-32.227,62.500,-26.367,0
1664462254.398,-33.203,-29.785,71.289,-22.949,0
1664462254.402,-30.762,-32.715,77.148,-28.320,0
1664462254.406,-62.012,-38.574,64.453,-30.762,0
1664462254.410,-71.289,-40.039,51.270,-20.996,0
1664462254.413,-51.270,-36.621,46.387,-28.320,0
1664462254.417,-20.020,-28.320,50.781,-24.902,0
1664462254.421,-36.133,-24.414,56.152,-22.461,0
1664462254.425,-43.457,-25.391,52.734,-27.832,0
1664462254.429,-26.855,-29.785,53.711,-28.320,0
1664462254.446,-8.301,-34.668,59.082,-10.742,0
1664462254.450,-15.625,-27.344,55.664,-7.324,0
1664462254.454,-27.344,-19.043,51.270,-18.066,0
1664462254.458,-33.203,-17.578,61.523,-19.531,0
1664462254.462,-13.672,-22.949,66.406,-15.137,0
1664462254.466,-20.020,-32.227,54.688,-8.789,0
1664462254.470,-42.969,-24.414,48.828,-17.578,0
1664462254.473,-36.133,-20.996,58.105,-23.438,0
1664462254.477,-19.043,-28.320,62.988,-13.184,0
1664462254.481,-24.414,-28.809,59.082,-5.371,0
1664462254.485,-44.922,-25.391,67.383,-24.902,0
1664462254.489,-40.039,-21.973,77.148,-31.250,0
1664462254.491,-20.996,-25.391,70.312,-10.742,0
1664462254.495,-3.418,-26.367,68.359,3.418,0
1664462254.499,-19.531,-23.438,71.777,-6.836,0
1664462254.503,-17.578,-27.832,67.383,-0.488,0
1664462254.507,-9.277,-31.738,63.477,2.930,0
1664462254.511,-10.254,-30.762,62.500,-2.930,0
1664462254.515,-28.809,-36.621,58.594,-9.766,0
1664462254.518,-39.062,-30.273,65.918,-2.441,0
1664462254.522,-31.250,-21.484,58.105,16.113,0
1664462254.526,-15.625,-24.902,54.688,19.531,0
1664462254.530,-18.555,-26.367,79.102,-1.465,0
1664462254.534,-33.691,-25.879,81.543,-8.789,0
1664462254.536,-33.203,-25.879,69.336,-0.977,0
1664462254.540,-6.836,-22.461,79.102,19.531,0
1664462254.544,-1.953,-20.996,84.961,31.250,0
1664462254.548,-35.645,-29.297,73.730,12.207,0
1664462254.552,-41.992,-31.738,66.406,-3.418,0
1664462254.556,-26.855,-28.320,66.895,-1.465,0
1664462254.560,-11.230,-28.809,68.848,4.395,0
1664462254.563,-31.250,-28.809,69.824,-8.789,0
1664462254.567,-42.480,-29.297,67.871,1.465,0
1664462254.571,-33.203,-31.738,57.617,-0.977,0
1664462254.575,-6.836,-30.762,45.410,-8.789,0
1664462254.579,-10.254,-24.902,54.688,-13.672,0
1664462254.581,-32.715,-27.832,67.383,-25.391,0
1664462254.585,-26.855,-27.832,66.895,-21.484,0
1664462254.589,-1.465,-23.926,63.965,-4.883,0
1664462254.593,-3.418,-23.438,64.941,-5.371,0
1664462254.597,-24.902,-20.996,64.941,-13.184,0
1664462254.601,-24.902,-22.949,56.152,-15.137,0
1664462254.605,-5.371,-26.367,65.918,-12.695,0
1664462254.608,6.836,-23.438,72.754,3.418,0
1664462254.612,-17.090,-25.391,53.223,9.277,0
1664462254.616,-22.949,-24.414,59.570,-3.906,0
1664462254.620,-19.043,-20.020,71.777,3.418,0
1664462254.624,-4.395,-25.879,66.895,20.508,0
1664462254.627,-20.020,-32.715,68.848,-10.742,0
1664462254.631,-36.133,-28.320,79.102,-28.809,0
1664462254.635,-28.320,-28.320,74.707,-15.137,0
1664462254.639,-4.395,-35.645,62.500,3.418,0
1664462254.643,-15.625,-37.598,58.594,-4.883,0
1664462254.647,-51.758,-39.062,49.805,-20.996,0
1664462254.651,-46.875,-37.109,50.781,-12.207,0
1664462254.654,-20.020,-34.180,49.316,11.230,0
1664462254.658,-24.414,-34.668,47.363,6.348,0
1664462254.662,-39.062,-35.156,64.453,-13.184,0
1664462254.666,-39.062,-37.598,76.660,-10.254,0
1664462254.670,-28.320,-40.527,68.848,-2.441,0
1664462254.671,-7.812,-37.109,67.871,13.672,0
1664462254.675,-31.250,-31.738,74.707,9.277,0
1664462254.679,-52.734,-34.668,61.523,-14.648,0
1664462254.683,-40.039,-38.574,55.664,-18.555,0
1664462254.687,-17.090,-35.645,61.035,-5.859,0
1664462254.691,-40.039,-33.203,49.805,-6.348,0
1664462254.695,-51.758,-30.762,48.828,-10.742,0
1664462254.698,-40.039,-29.297,62.012,3.418,0
1664462254.702,-19.531,-32.715,69.336,3.906,0
1664462254.706,-17.090,-34.180,68.848,-3.906,0
1664462254.710,-33.203,-32.715,69.336,-3.418,0
1664462254.714,-28.809,-26.855,66.406,-1.953,0
1664462254.716,0.000,-22.949,68.359,-2.930,0
1664462254.720,2.441,-21.973,67.383,0.000,0
1664462254.724,-28.809,-23.926,61.035,0.977,0
1664462254.728,-30.273,-15.137,64.941,4.883,0
1664462254.732,-2.441,-7.324,63.965,14.160,0
1664462254.736,2.441,-18.066,44.922,12.695,0
1664462254.740,-31.738,-26.855,39.062,-11.719,0
1664462254.743,-42.480,-25.879,57.129,-20.508,0
1664462254.747,-25.879,-27.344,65.430,-18.555,0
1664462254.751,-5.371,-22.949,63.477,-8.301,0
1664462254.755,-30.762,-16.602,65.430,-9.277,0
1664462254.759,-39.551,-20.996,71.289,-7.324,0
1664462254.775,-18.555,-24.902,81.543,8.789,0
1664462254.779,3.906,-25.391,71.777,18.555,0
1664462254.783,-5.859,-21.484,64.453,11.719,0
1664462254.787,-22.949,-14.648,77.637,0.000,0
1664462254.791,-28.809,-19.043,68.848,-9.277,0
1664462254.795,-15.625,-29.785,57.129,-0.977,0
1664462254.799,-13.184,-33.691,58.105,20.020,0
1664462254.802,-47.852,-31.250,66.895,-1.465,0
1664462254.806,-43.945,-28.809,66.406,-16.113,0
1664462254.810,-8.789,-24.902,73.242,9.766,0
1664462254.814,7.812,-25.391,69.336,24.902,0
1664462254.818,-19.043,-26.855,57.617,7.812,0
1664462254.821,-23.926,-27.344,70.312,6.348,0
1664462254.825,-6.348,-27.832,70.312,18.066,0
1664462254.829,19.043,-27.832,62.012,12.695,0
1664462254.833,7.812,-30.762,68.359,-5.371,0
1664462254.837,-21.484,-35.156,56.152,-22.461,0
1664462254.841,-20.020,-32.227,51.758,-14.648,0
1664462254.845,7.812,-26.367,64.941,2.930,0
1664462254.848,9.277,-24.902,72.266,5.371,0
1664462254.852,-12.695,-22.949,65.918,2.930,0
1664462254.856,-19.531,-27.344,50.293,12.695,0
1664462254.860,8.789,-24.414,58.105,15.137,0
1664462254.864,23.926,-17.578,71.777,10.742,0
1664462254.865,-8.789,-24.414,70.801,-4.395,0
1664462254.869,-19.043,-27.344,64.453,-9.766,0
1664462254.873,-4.395,-24.414,54.688,-24.414,0
1664462254.877,8.301,-20.508,47.363,-54.688,0
1664462254.881,-10.254,-23.438,55.664,-38.086,0
1664462254.885,-26.367,-31.738,64.941,-32.227,0
1664462254.889,-13.672,-29.785,64.941,-34.668,0
1664462254.892,11.719,-24.902,60.059,-11.230,0
1664462254.896,-9.277,-30.762,64.453,-9.766,0
1664462254.900,-35.645,-37.109,65.430,-15.625,0
1664462254.904,-31.738,-37.109,76.660,-19.043,0
1664462254.908,-8.301,-38.574,72.754,-6.836,0
1664462254.911,-6.348,-32.227,52.246,-1.953,0
1664462254.915,-34.180,-30.273,58.594,-15.625,0
1664462254.919,-37.109,-31.738,68.359,-10.742,0
1664462254.923,-8.789,-24.902,62.012,7.812,0
1664462254.927,5.859,-18.555,67.383,11.719,0
1664462254.931,-22.461,-19.043,73.242,-1.465,0
1664462254.935,-34.668,-27.832,72.266,-5.859,0
1664462254.938,-21.484,-28.320,78.125,-3.906,0
1664462254.942,-0.977,-30.273,69.336,10.254,0
1664462254.946,-22.461,-42.480,69.824,-10.742,0
1664462254.950,-34.180,-42.969,69.336,-22.461,0
1664462254.954,-19.043,-42.480,67.871,-3.906,0
1664462254.956,0.977,-41.504,76.172,4.395,0
1664462254.960,-3.906,-34.668,79.590,1.953,0
1664462254.964,-32.227,-34.180,74.219,-8.789,0
1664462254.968,-36.133,-33.203,64.453,-11.719,0
1664462254.972,-2.930,-28.320,64.453,-0.488,0
1664462254.976,5.371,-22.461,64.941,5.859,0
1664462254.980,-17.090,-22.949,64.941,-1.953,0
1664462254.983,-19.043,-29.785,66.406,1.953,0
1664462254.987,2.930,-20.508,68.359,24.414,0
1664462254.991,23.926,-13.184,70.312,12.207,0
1664462254.995,-4.883,-20.508,66.406,-20.020,0
1664462254.999,-21.973,-29.785,66.406,-16.113,0
1664462255.001,-5.371,-31.738,65.430,-6.836,0
1664462255.005,10.254,-28.809,68.359,-2.930,0
1664462255.009,-14.160,-29.297,60.059,-7.324,0
1664462255.013,-23.926,-31.738,59.570,-13.184,0
1664462255.017,-20.508,-33.691,73.242,-16.113,0
1664462255.021,-3.906,-35.645,73.730,-3.418,0
1664462255.025,-11.719,-33.691,69.824,-4.883,0
1664462255.028,-36.621,-31.738,55.176,-7.324,0
1664462255.032,-24.414,-29.297,59.570,-4.395,0
1664462255.036,3.418,-26.367,71.777,-3.906,0
1664462255.040,-5.371,-26.855,62.012,-11.230,0
1664462255.044,-33.691,-30.273,51.758,-25.879,0
1664462255.060,-30.762,-37.109,56.641,-28.320,0
1664462255.064,-9.766,-33.691,67.871,-24.414,0
1664462255.068,1.953,-28.320,61.523,-15.137,0
1664462255.072,-22.949,-30.273,59.570,-20.020,0
1664462255.076,-35.156,-27.832,68.359,-19.043,0
1664462255.080,-26.367,-26.367,56.152,-5.859,0
1664462255.084,-3.418,-25.879,49.316,1.953,0
1664462255.087,-20.508,-26.367,66.406,-2.441,0
1664462255.091,-39.062,-30.273,65.918,-24.902,0
1664462255.095,-29.785,-28.320,55.176,-34.180,0
1664462255.099,-8.789,-25.879,60.059,-14.648,0
1664462255.103,-6.348,-25.879,66.406,-6.836,0
1664462255.090,-23.438,-29.785,73.730,-17.090,0
1664462255.094,-30.273,-27.344,71.289,-13.184,0
1664462255.098,-10.742,-19.531,59.082,-0.977,0
1664462255.102,1.465,-18.555,49.316,1.465,0
1664462255.106,-24.414,-17.090,54.688,-18.066,0
1664462255.110,-37.109,-17.090,59.570,-23.926,0
1664462255.114,-20.508,-22.949,49.316,-9.766,0
1664462255.117,5.371,-19.043,59.082,-3.418,0
1664462255.121,-15.137,-19.043,67.383,-11.719,0
1664462255.125,-30.273,-30.273,55.664,-14.160,0
1664462255.129,-30.762,-29.297,43.945,-4.395,0
1664462255.133,-8.301,-20.020,50.781,-8.789,0
1664462255.135,-14.160,-17.578,62.500,-22.949,0
1664462255.139,-34.668,-26.367,61.035,-20.508,0
1664462255.143,-34.180,-27.832,58.594,-11.719,0
1664462255.147,-11.719,-26.367,67.871,4.395,0
1664462255.151,-8.301,-28.809,69.824,-5.371,0
1664462255.155,-31.250,-26.367,67.383,-18.066,0
1664462255.159,-30.273,-27.344,59.570,-9.277,0
1664462255.162,-2.930,-26.367,55.176,-14.648,0
1664462255.166,-1.465,-23.926,63.965,-10.742,0
1664462255.170,-42.480,-34.668,52.734,-21.484,0
1664462255.174,-52.246,-34.180,41.504,-27.832,0
1664462255.178,-28.809,-32.715,55.664,-20.020,0
1664462255.196,-6.836,-33.203,60.059,-10.254,0
1664462255.200,-31.250,-37.109,54.688,-9.277,0
1664462255.204,-52.246,-40.527,59.082,-18.066,0
1664462255.208,-40.527,-30.762,64.941,-9.766,0
1664462255.212,-5.859,-24.902,65.918,11.719,0
1664462255.216,-17.090,-24.414,60.059,20.020,0
1664462255.220,-37.109,-22.461,72.266,6.836,0
1664462255.223,-30.273,-25.391,68.848,-8.301,0
1664462255.227,-6.348,-33.691,60.059,4.883,0
1664462255.231,1.953,-31.738,59.082,16.113,0
1664462255.235,-22.461,-28.809,65.918,-8.789,0
1664462255.239,-21.973,-32.227,71.289,-14.648,0
1664462255.241,-2.441,-26.367,68.359,-0.488,0
1664462255.245,5.859,-21.484,72.754,-0.488,0
1664462255.249,-21.973,-25.879,67.871,-14.160,0
1664462255.253,-32.715,-25.391,67.871,-13.184,0
1664462255.257,-17.578,-22.461,69.336,-9.277,0
1664462255.261,3.418,-19.043,58.105,-3.906,0
1664462255.265,-14.648,-16.113,55.176,-6.348,0
1664462255.268,-26.367,-17.578,70.312,-15.625,0
1664462255.272,-21.484,-20.508,74.707,-8.301,0
1664462255.276,-9.766,-22.949,69.824,5.371,0
1664462255.280,-12.695,-26.855,67.871,-13.184,0
1664462255.284,-26.367,-26.367,65.918,-16.113,0
1664462255.286,-22.949,-22.949,64.941,-10.254,0
1664462255.290,-3.906,-24.902,55.664,-13.184,0
1664462255.294,9.277,-27.832,59.570,7.812,0
1664462255.298,-5.371,-30.273,73.730,14.648,0
1664462255.302,-21.973,-23.926,83.496,0.000,0
1664462255.306,-11.230,-14.648,66.406,0.488,0
1664462255.310,9.766,-11.719,57.617,-1.953,0
1664462255.313,-10.254,-12.695,68.359,-13.672,0
1664462255.317,-13.184,-13.184,62.988,8.789,0
1664462255.321,1.953,-9.766,67.871,15.137,0
1664462255.325,24.414,-10.254,71.289,7.324,0
1664462255.329,9.766,-9.766,51.270,7.812,0
1664462255.331,-9.277,-12.207,48.340,10.742,0
1664462255.335,2.441,-19.531,56.152,18.555,0
1664462255.339,29.297,-21.973,57.617,29.297,0
1664462255.343,20.508,-21.973,59.082,23.438,0
1664462255.347,-3.906,-21.484,54.199,11.719,0
1664462255.351,-5.859,-20.020,43.457,18.066,0
1664462255.355,6.348,-20.996,52.246,23.926,0
1664462255.358,3.418,-30.273,59.570,23.438,0
1664462255.362,-16.113,-28.320,58.105,20.508,0
1664462255.366,-9.766,-20.020,64.941,5.371,0
1664462255.370,9.277,-16.602,62.012,11.719,0
1664462255.374,18.066,-18.066,58.594,26.367,0
1664462255.376,-13.184,-28.320,60.547,6.348,0
1664462255.380,-24.902,-31.738,61.523,-4.395,0
1664462255.384,-14.160,-28.320,56.152,4.883,0
1664462255.388,8.789,-27.344,50.293,20.508,0
1664462255.392,1.953,-32.227,52.246,4.395,0
1664462255.396,-15.625,-38.574,47.852,-8.301,0
1664462255.400,0.977,-33.691,40.527,14.648,0
1664462255.403,26.367,-29.785,48.828,39.551,0
1664462255.407,-6.836,-38.086,67.383,14.648,0
1664462255.411,-37.598,-37.598,73.730,-15.625,0
1664462255.415,-26.367,-37.109,67.383,-6.348,0
1664462255.419,-19.531,-43.457,65.918,2.930,0
1664462255.421,-15.137,-41.992,71.777,8.789,0
1664462255.425,-22.949,-39.551,72.266,18.555,0
1664462255.429,-28.320,-35.156,74.707,25.391,0
1664462255.433,-25.391,-42.480,75.684,12.207,0
1664462255.437,-8.789,-49.316,80.566,3.418,0
1664462255.441,-20.996,-47.363,79.102,-1.465,0
1664462255.445,-29.297,-41.504,65.918,8.301,0
1664462255.448,-27.344,-36.621,55.664,20.020,0
1664462255.452,-2.930,-36.621,65.430,8.789,0
1664462255.456,-15.137,-36.621,69.824,-0.488,0
1664462255.460,-41.992,-32.227,63.965,-2.930,0
1664462255.464,-30.762,-25.879,70.312,-7.812,0
1664462255.466,-2.441,-29.297,75.195,5.371,0
1664462255.470,-5.371,-36.621,66.895,16.113,0
1664462255.474,-28.320,-35.156,63.477,11.719,0
1664462255.478,-26.855,-26.855,73.730,4.883,0
1664462255.482,-15.625,-29.785,65.430,0.977,0
1664462255.486,-14.160,-33.691,56.152,1.953,0
1664462255.490,-39.551,-35.156,59.570,-4.395,0
1664462255.493,-47.852,-35.156,63.965,-10.254,0
1664462255.497,-30.273,-37.109,71.777,-22.461,0
1664462255.501,-7.812,-34.180,65.918,-12.207,0
1664462255.505,-28.809,-32.227,61.523,-10.254,0
1664462255.509,-42.480,-37.598,65.430,-18.555,0
1664462255.511,-20.508,-36.133,71.777,-6.836,0
1664462255.515,6.836,-31.250,75.684,8.789,0
1664462255.519,-6.348,-34.668,72.754,-4.395,0
1664462255.523,-23.926,-25.391,71.777,-15.137,0
1664462255.527,-22.461,-16.602,78.125,-1.953,0
1664462255.531,-10.742,-27.832,69.824,12.695,0
1664462255.535,-24.414,-33.691,56.641,5.859,0
1664462255.538,-45.898,-33.691,71.289,-14.160,0
1664462255.542,-40.039,-34.180,74.707,-17.090,0
1664462255.546,-21.973,-34.668,60.547,-6.836,0
1664462255.550,-3.906,-34.668,57.617,7.324,0
1664462255.554,-25.391,-32.227,62.500,-6.348,0
1664462255.572,-41.992,-34.668,60.547,-13.672,0
1664462255.576,-26.855,-34.668,60.547,-4.395,0
1664462255.580,-7.812,-34.668,60.059,1.953,0
1664462255.584,-25.879,-32.715,64.453,-1.953,0
1664462255.588,-32.227,-22.461,77.637,-5.371,0
1664462255.592,-26.855,-26.367,66.406,-0.488,0
1664462255.596,-7.324,-34.180,61.035,-1.465,0
1664462255.599,-11.230,-34.180,69.336,-9.766,0
1664462255.603,-27.832,-35.156,66.895,-11.719,0
1664462255.607,-29.297,-35.156,59.082,-1.953,0
1664462255.611,-20.508,-47.852,62.988,-6.836,0
1664462255.615,-13.184,-47.363,63.965,-13.672,0
1664462255.616,-31.738,-38.086,63.477,-14.648,0
1664462255.620,-41.992,-36.621,67.383,-15.625,0
1664462255.624,-25.391,-36.621,64.453,-12.207,0
1664462255.628,-6.348,-31.738,61.035,-0.488,0
1664462255.632,-21.484,-26.855,67.383,3.418,0
1664462255.636,-33.203,-27.832,73.730,3.906,0
1664462255.640,-34.180,-32.227,76.660,3.906,0
1664462255.643,-10.742,-35.156,71.777,1.953,0
1664462255.647,-21.973,-33.691,66.406,-7.812,0
1664462255.651,-42.969,-37.598,63.477,-3.906,0
1664462255.655,-34.668,-40.527,67.871,-12.207,0
1664462255.659,-7.324,-35.645,63.965,-4.395,0
1664462255.661,-5.371,-30.273,57.617,2.930,0
1664462255.665,-28.320,-28.809,60.059,-1.465,0
1664462255.669,-34.180,-30.273,54.688,1.953,0
1664462255.673,-9.766,-32.715,51.270,7.324,0
1664462255.677,-8.789,-34.180,59.570,-8.789,0
1664462255.681,-38.086,-36.621,60.059,-19.531,0
1664462255.685,-39.551,-38.574,64.453,-14.648,0
1664462255.688,-20.020,-38.086,59.570,-7.812,0
1664462255.692,0.977,-30.762,52.734,24.414,0
1664462255.696,-26.855,-23.438,64.941,15.137,0
1664462255.700,-39.062,-31.250,66.895,-7.324,0
1664462255.704,-31.738,-34.668,64.941,-5.371,0
1664462255.706,-21.973,-35.156,64.941,0.977,0
1664462255.710,-31.250,-35.156,54.688,-4.883,0
1664462255.714,-44.434,-32.227,58.594,-18.555,0
1664462255.718,-37.109,-33.203,65.430,-18.066,0
1664462255.722,-10.742,-33.691,59.570,0.000,0
1664462255.726,-22.461,-32.227,65.918,5.859,0
1664462255.730,-49.316,-35.156,70.801,-13.672,0
1664462255.733,-38.086,-32.715,62.988,-14.160,0
1664462255.737,-21.484,-30.762,65.430,17.090,0
1664462255.741,-17.090,-31.738,72.266,10.742,0
1664462255.745,-29.297,-26.855,70.312,-19.043,0
1664462255.749,-31.250,-24.414,70.801,-18.555,0
1664462255.751,-23.438,-27.832,67.871,-13.672,0
1664462255.755,-12.695,-34.668,70.801,-13.184,0
1664462255.759,-29.785,-36.621,66.895,-20.508,0
1664462255.763,-31.738,-26.855,63.965,-16.602,0
1664462255.767,-25.391,-27.832,67.871,-12.695,0
1664462255.771,-4.395,-27.832,66.406,-15.137,0
1664462255.775,-7.324,-24.902,60.059,-12.207,0
1664462255.778,-23.438,-30.273,47.363,-5.859,0
1664462255.782,-20.996,-30.762,60.547,-7.812,0
1664462255.786,-0.488,-29.297,73.730,-4.395,0
1664462255.790,0.000,-37.109,67.383,-8.301,0
1664462255.794,-22.949,-38.086,64.941,-23.926,0
1664462255.796,-21.484,-31.738,75.195,-18.066,0
1664462255.800,-1.465,-31.738,74.707,-6.836,0
1664462255.804,3.418,-31.250,61.035,-8.301,0
1664462255.808,-22.949,-32.227,58.594,-17.578,0
1664462255.812,-29.297,-36.621,60.547,-21.484,0
1664462255.816,-18.066,-37.109,54.688,-16.113,0
1664462255.820,-5.859,-36.621,52.246,-7.324,0
1664462255.823,-24.902,-36.621,55.176,-2.930,0
1664462255.827,-27.832,-34.668,55.664,-13.672,0
1664462255.831,-14.648,-33.203,60.059,-13.672,0
1664462255.835,-1.465,-35.156,60.059,-5.859,0
1664462255.839,-18.555,-33.691,51.758,-16.113,0
1664462255.856,-43.945,-28.809,58.105,-30.273,0
1664462255.860,-38.086,-32.227,57.129,-24.902,0
1664462255.864,-10.742,-32.715,49.316,-4.883,0
1664462255.868,-14.160,-25.391,46.875,-4.883,0
1664462255.872,-47.363,-34.180,39.062,-27.344,0
1664462255.876,-47.852,-44.434,26.367,-35.156,0
1664462255.880,-25.391,-39.551,20.996,-7.324,0
1664462255.883,-14.648,-37.598,37.598,-1.953,0
1664462255.887,-37.598,-37.109,43.945,-27.344,0
1664462255.891,-41.992,-32.227,41.992,-20.020,0
1664462255.895,-26.367,-25.879,46.875,-10.742,0
1664462255.899,-11.230,-22.949,47.852,-10.742,0
1664462255.886,-28.320,-29.785,54.199,-23.926,0
1664462255.890,-41.016,-31.738,59.570,-24.902,0
1664462255.894,-33.203,-28.320,50.781,-13.184,0
1664462255.898,-8.789,-27.832,53.711,2.441,0
1664462255.902,-11.230,-27.344,59.082,7.324,0
1664462255.906,-28.320,-29.297,50.781,5.371,0
1664462255.910,-32.227,-30.762,48.828,-3.418,0
1664462255.913,-15.137,-30.273,53.223,-6.348,0
1664462255.917,-11.719,-33.203,55.664,0.000,0
1664462255.921,-39.551,-35.156,43.457,-0.488,0
1664462255.925,-39.062,-30.762,43.457,7.812,0
1664462255.929,-12.695,-28.320,59.570,5.371,0
1664462255.946,-0.488,-32.227,62.988,4.883,0
1664462255.950,-28.809,-35.156,56.152,-16.602,0
1664462255.954,-39.551,-35.645,55.664,-25.391,0
1664462255.958,-24.414,-36.621,55.176,-17.090,0
1664462255.962,-1.953,-34.180,48.340,-9.277,0
1664462255.966,-15.625,-31.250,45.410,-11.230,0
1664462255.970,-23.438,-24.414,62.988,-15.625,0
1664462255.973,-19.531,-24.414,73.730,-14.160,0
1664462255.977,-0.977,-29.785,41.016,-10.254,0
1664462255.981,-4.883,-28.320,30.762,-5.371,0
1664462255.985,-30.273,-27.344,57.617,-18.066,0
1664462255.989,-35.156,-28.809,65.430,-24.902,0
1664462255.990,-19.043,-28.320,56.152,-11.230,0
1664462255.994,-6.348,-25.391,54.199,-4.883,0
1664462255.998,-27.832,-25.879,55.664,-22.461,0
1664462256.002,-38.574,-35.645,52.246,-35.156,0
1664462256.006,-19.043,-33.203,48.340,-20.996,0
1664462256.010,-6.836,-24.902,40.527,-12.695,0
1664462256.014,-27.832,-26.855,43.457,-29.297,0
1664462256.017,-36.621,-25.879,55.176,-29.297,0
1664462256.021,-20.996,-20.020,55.176,-4.395,0
1664462256.025,-1.465,-24.414,54.199,20.020,0
1664462256.029,-18.066,-30.762,61.035,1.465,0
1664462256.033,-37.109,-34.668,60.547,-24.414,0
1664462256.035,-28.320,-36.621,59.570,-16.113,0
1664462256.039,-5.859,-35.156,61.523,-3.906,0
1664462256.043,-8.789,-30.273,57.129,-15.137,0
1664462256.047,-34.668,-30.762,48.828,-27.344,0
1664462256.051,-45.410,-36.621,44.922,-23.926,0
1664462256.055,-21.484,-38.086,53.223,-13.184,0
1664462256.059,-12.695,-38.574,62.012,-10.254,0
1664462256.062,-20.508,-30.273,60.547,-1.953,0
1664462256.066,-5.371,-23.926,61.035,11.230,0
1664462256.070,-3.906,-32.227,63.965,-2.441,0
1664462256.074,-0.977,-34.180,63.477,-9.766,0
1664462256.078,-21.973,-33.691,65.430,-15.625,0
1664462256.080,-24.414,-29.297,59.570,-7.812,0
1664462256.084,-4.395,-23.438,59.082,0.488,0
1664462256.088,21.973,-26.855,63.477,5.859,0
1664462256.092,18.066,-27.344,63.965,15.625,0
1664462256.096,-20.020,-24.414,60.059,19.043,0
1664462256.100,-26.855,-31.250,53.223,5.859,0
1664462256.104,-2.930,-37.598,48.828,0.488,0
1664462256.107,-1.465,-31.738,46.387,6.348,0
1664462256.111,-24.902,-31.250,44.922,5.371,0
1664462256.115,-32.227,-33.691,55.176,-7.812,0
1664462256.119,-15.625,-34.180,65.918,0.488,0
1664462256.123,-3.906,-28.809,64.453,12.695,0
1664462256.125,-25.391,-26.855,64.941,2.441,0
1664462256.129,-31.738,-32.715,66.406,-2.441,0
1664462256.133,-16.113,-34.668,55.664,4.395,0
1664462256.137,4.395,-31.250,60.059,25.391,0
1664462256.141,-25.879,-32.227,69.336,8.301,0
1664462256.145,-41.016,-37.109,65.430,-8.301,0
1664462256.149,-28.320,-36.621,60.547,-6.836,0
1664462256.152,-18.066,-35.645,57.129,10.254,0
1664462256.156,-30.273,-37.109,67.383,6.836,90
1664462256.160,-42.480,-43.945,66.895,-17.090,0
1664462256.164,-44.434,-48.828,57.617,-19.531,0
1664462256.168,-20.996,-40.039,62.988,-4.883,0
1664462256.171,-9.277,-31.738,73.242,4.395,0
1664462256.175,-35.156,-33.203,73.730,0.488,0
1664462256.179,-38.086,-38.574,62.500,-4.395,0
1664462256.183,-25.391,-43.457,53.223,-5.371,0
1664462256.187,-16.113,-44.434,47.852,-12.207,0
1664462256.191,-35.156,-40.527,55.176,-22.949,0
1664462256.195,-42.969,-37.109,57.617,-18.066,0
1664462256.198,-38.086,-39.062,51.758,-3.906,0
1664462256.202,-14.160,-33.203,62.988,3.906,0
1664462256.206,-25.879,-33.691,63.477,-4.883,0
1664462256.210,-48.828,-36.621,64.453,-12.207,0
1664462256.214,-47.363,-34.668,66.406,-12.207,0
1664462256.216,-25.391,-37.109,58.105,-10.254,0
1664462256.220,-25.391,-36.133,60.547,-15.137,0
1664462256.224,-47.363,-31.738,56.152,-15.625,0
1664462256.228,-41.992,-32.227,59.570,-11.230,0
1664462256.232,-13.672,-33.691,67.383,-1.465,0
1664462256.236,-10.742,-27.832,63.477,8.301,0
1664462256.240,-39.062,-30.762,51.270,-5.859,0
1664462256.243,-49.805,-41.016,48.828,-31.250,0
1664462256.247,-28.320,-38.086,66.895,-34.180,0
1664462256.251,-4.395,-35.645,60.547,-20.508,0
1664462256.255,-32.227,-33.203,50.293,-20.996,0
1664462256.259,-40.527,-28.320,53.223,-22.949,0
1664462256.261,-20.996,-31.250,56.641,-19.043,0
1664462256.265,-4.883,-30.273,62.500,-13.672,0
1664462256.269,-19.043,-28.320,65.918,-19.531,0
1664462256.273,-32.227,-27.344,58.105,-22.949,0
1664462256.277,-30.762,-24.414,55.176,-16.113,0
1664462256.281,-12.207,-24.902,59.082,4.395,0
1664462256.285,-11.719,-21.973,63.477,11.230,0
1664462256.288,-33.203,-21.973,65.918,-9.766,0
1664462256.292,-37.109,-28.320,58.594,-24.414,0
1664462256.296,-19.531,-29.785,61.523,-17.090,0
1664462256.300,-22.949,-33.203,62.500,-9.766,0
1664462256.304,-45.410,-41.992,56.641,-26.855,0
1664462256.321,-45.898,-39.062,49.316,-33.203,0
1664462256.325,-25.879,-25.879,50.293,-9.277,0
1664462256.329,-10.742,-27.344,50.293,4.883,0
1664462256.333,-31.738,-35.645,51.270,-5.371,0
1664462256.337,-39.551,-30.273,50.293,-5.859,0
1664462256.341,-30.762,-29.785,49.316,-2.441,0
1664462256.345,-18.555,-37.109,61.523,-1.953,0
1664462256.348,-28.320,-36.621,60.059,-16.113,0
1664462256.352,-39.062,-33.203,56.152,-27.832,0
1664462256.356,-37.598,-35.156,50.781,-20.020,0
1664462256.360,-18.555,-42.480,46.875,-14.160,0
1664462256.364,-17.090,-42.969,47.852,-17.578,0
1664462256.366,-38.086,-35.156,44.922,-22.461,0
1664462256.370,-33.691,-30.762,52.734,-19.043,0
1664462256.374,-11.230,-30.762,58.105,-13.184,0
1664462256.378,-1.465,-29.785,54.199,-8.789,0
1664462256.382,-26.367,-25.391,54.688,-8.789,0
1664462256.386,-35.645,-27.832,49.316,-17.578,0
1664462256.390,-24.414,-35.645,45.898,-15.137,0
1664462256.393,-9.766,-34.668,57.129,-9.766,0
1664462256.397,-29.785,-37.109,54.688,-23.926,0
1664462256.401,-48.828,-33.691,47.363,-26.367,0
1664462256.405,-40.527,-26.855,53.223,-27.832,0
1664462256.409,-11.719,-26.367,58.594,-9.277,0
1664462256.411,-27.344,-35.156,56.152,-8.789,0
1664462256.415,-49.316,-39.062,50.781,-29.785,0
1664462256.419,-32.715,-34.180,50.781,-22.461,0
1664462256.423,2.930,-28.809,56.641,-0.977,0
1664462256.427,-0.488,-26.367,55.664,-4.395,0
1664462256.431,-24.902,-23.926,47.852,-12.695,0
1664462256.435,-15.625,-27.832,58.594,-1.465,0
1664462256.438,-2.930,-34.668,56.641,-0.977,0
1664462256.442,-0.977,-35.156,45.410,2.930,0
1664462256.446,-31.250,-27.832,52.734,-20.020,0
1664462256.450,-38.086,-24.902,51.758,-32.715,0
1664462256.454,-16.113,-24.414,47.363,-10.742,0
1664462256.456,2.930,-22.949,51.270,-1.953,0
1664462256.460,-14.160,-28.809,50.293,-14.648,0
1664462256.464,-24.414,-28.809,47.852,-18.555,0
1664462256.468,-24.414,-28.320,46.875,-10.742,0
1664462256.472,-5.371,-32.715,35.645,-6.348,0
1664462256.476,-13.184,-34.668,27.832,-5.371,0
1664462256.480,-40.527,-32.715,39.551,-13.184,0
1664462256.483,-40.039,-31.738,39.551,-18.066,0
1664462256.487,-17.090,-35.156,36.621,3.418,0
1664462256.491,-3.906,-33.691,50.293,0.000,0
1664462256.495,-22.949,-36.133,53.223,-15.625,0
1664462256.499,-39.551,-39.062,56.152,-13.184,0
1664462256.501,-15.625,-37.109,59.082,-1.953,0
1664462256.505,10.742,-38.086,54.688,-4.883,0
1664462256.509,-32.227,-36.133,43.945,-20.020,0
1664462256.513,-45.410,-37.109,36.621,-22.461,0
1664462256.517,-14.648,-34.180,42.480,-20.020,0
1664462256.521,3.906,-25.391,48.340,-5.859,0
1664462256.525,-25.879,-30.273,42.480,-24.902,0
1664462256.528,-38.574,-36.621,40.039,-21.973,0
1664462256.532,-25.391,-36.133,55.176,-4.395,0
1664462256.536,-9.766,-31.738,53.711,-10.254,0
1664462256.540,-20.508,-36.621,43.945,-14.648,0
1664462256.544,-44.434,-36.621,51.270,-20.020,0
1664462256.546,-37.109,-32.227,56.641,-20.508,0
1664462256.550,-10.254,-35.645,46.387,-10.742,0
1664462256.554,-12.695,-29.785,42.480,-10.742,0
1664462256.558,-31.738,-29.297,47.852,-27.344,0
1664462256.562,-38.086,-30.273,50.293,-29.785,0
1664462256.566,-34.180,-34.668,48.340,-17.090,0
1664462256.570,-24.902,-42.969,47.363,-9.766,0
1664462256.573,-44.922,-39.062,54.199,-14.160,0
1664462256.577,-46.875,-33.691,55.176,-27.344,0
1664462256.581,-34.180,-34.180,45.898,-27.344,0
1664462256.585,-19.531,-34.668,47.852,-14.648,0
1664462256.589,-25.879,-35.645,56.152,-17.090,0
1664462256.591,-39.551,-34.180,60.059,-20.996,0
1664462256.595,-33.691,-37.109,56.641,-20.020,0
1664462256.599,-8.301,-33.691,52.246,-8.789,0
1664462256.603,-17.090,-30.762,56.152,-4.395,0
1664462256.607,-39.551,-33.203,60.059,-18.555,0
1664462256.611,-41.992,-31.738,57.129,-19.531,0
1664462256.615,-16.602,-34.668,51.270,-1.465,0
1664462256.618,-6.836,-37.598,53.223,-5.859,0
1664462256.622,-38.086,-35.645,59.082,-30.762,0
1664462256.626,-34.180,-37.109,63.477,-30.762,0
1664462256.630,-5.371,-31.250,62.012,-8.301,0
1664462256.634,7.812,-34.180,56.152,-0.488,0
1664462256.636,-19.043,-37.109,57.129,-12.695,0
1664462256.640,-37.598,-32.227,57.129,-11.719,0
1664462256.644,-19.531,-31.738,56.152,-13.184,0
1664462256.648,0.000,-34.180,60.059,-6.348,0
1664462256.652,-27.344,-38.086,58.105,-14.160,0
1664462256.656,-45.898,-38.086,47.852,-16.113,0
1664462256.660,-46.387,-39.551,50.293,-11.719,0
1664462256.663,-24.902,-41.016,56.641,-15.137,0
1664462256.667,-19.531,-41.504,55.664,-17.578,0
1664462256.671,-54.688,-47.363,51.270,-33.203,0
1664462256.675,-56.641,-42.480,41.504,-29.297,0
1664462256.679,-23.926,-37.598,52.246,-19.043,0
1664462256.696,-20.508,-34.180,58.594,-22.949,0
1664462256.700,-49.805,-36.133,52.246,-35.645,0
1664462256.704,-56.152,-42.480,53.223,-41.016,0
1664462256.708,-38.574,-38.086,46.875,-30.273,0
1664462256.712,-18.555,-34.668,42.969,-18.066,0
1664462256.716,-36.621,-39.062,41.992,-17.090,0
1664462256.720,-52.246,-41.016,44.922,-21.973,0
1664462256.723,-42.480,-41.016,56.152,-24.902,0
1664462256.727,-5.859,-39.551,52.734,-19.531,0
1664462256.731,-17.578,-36.133,37.598,-12.207,0
1664462256.735,-49.805,-33.691,45.410,-23.438,0
1664462256.739,-47.363,-33.203,55.664,-37.598,0
1664462256.741,-22.461,-32.715,49.805,-30.762,0
1664462256.745,-18.555,-30.762,45.410,-24.902,0
1664462256.749,-43.945,-29.297,58.105,-30.273,0
1664462256.753,-41.504,-31.738,61.523,-28.320,0
1664462256.757,-26.855,-37.598,51.270,-23.438,0
1664462256.761,-16.113,-35.156,49.316,-16.113,0
1664462256.765,-34.180,-25.879,55.664,-26.855,0
1664462256.768,-44.922,-28.809,61.035,-30.762,0
1664462256.772,-32.227,-29.785,55.176,-10.742,0
1664462256.776,-11.230,-29.297,43.945,7.324,0
1664462256.780,-20.996,-28.320,55.176,-8.301,0
1664462256.784,-29.297,-26.367,68.848,-16.602,0
1664462256.786,-39.551,-32.227,67.871,-14.160,0
1664462256.790,-22.461,-37.598,61.035,-11.230,0
1664462256.794,-17.090,-36.133,63.965,-20.508,0
1664462256.798,-35.645,-29.297,67.871,-29.297,0
1664462256.802,-35.156,-26.367,61.523,-16.113,0
1664462256.806,-16.113,-33.203,55.176,0.488,0
1664462256.810,-10.742,-32.227,54.199,-5.859,0
1664462256.813,-35.156,-30.273,57.617,-33.691,0
1664462256.817,-33.691,-29.297,50.293,-20.508,0
1664462256.821,-13.672,-27.832,44.922,-8.789,0
1664462256.825,-7.324,-27.344,43.945,-15.625,0
1664462256.829,-30.762,-27.832,44.922,-17.578,0
1664462256.859,-39.551,-35.156,54.688,-12.695,0
1664462256.863,-20.508,-33.203,59.082,-4.395,0
1664462256.867,3.906,-26.855,56.152,0.000,0
1664462256.871,-21.973,-32.227,57.617,-13.672,0
1664462256.875,-42.969,-31.738,61.035,-27.344,0
1664462256.879,-28.320,-22.949,58.594,-15.625,0
1664462256.883,-1.953,-23.438,51.758,-5.371,0
1664462256.886,-6.836,-26.367,48.340,-11.230,0
1664462256.890,-41.992,-30.273,36.133,-3.906,0
1664462256.894,-34.668,-33.691,43.457,-18.066,0
1664462256.898,-5.859,-33.691,57.129,-23.438,0
1664462256.902,-7.324,-33.203,54.688,-12.695,0
1664462256.876,-32.227,-32.227,54.688,-22.461,0
1664462256.880,-38.574,-32.227,50.781,-25.391,0
1664462256.884,-25.879,-33.203,50.781,-18.555,0
1664462256.888,-10.742,-37.109,53.223,-10.742,0
1664462256.892,-34.668,-41.504,48.828,-23.926,0
1664462256.896,-48.340,-43.457,43.945,-41.504,0
1664462256.900,-33.203,-37.109,47.363,-33.203,0
1664462256.903,-17.090,-35.156,41.016,-12.207,0
1664462256.907,-31.738,-38.574,30.762,-19.531,0
1664462256.911,-34.668,-38.574,44.434,-23.438,0
1664462256.915,-27.832,-31.250,58.594,-12.207,0
1664462256.919,-13.184,-24.902,60.059,-2.930,0
1664462256.922,-14.648,-31.250,53.711,-8.789,0
1664462256.926,-33.691,-31.738,49.316,-10.254,0
1664462256.930,-36.621,-33.203,52.246,-6.836,0
1664462256.934,-21.973,-35.156,59.570,-7.812,0
1664462256.938,-12.695,-32.715,60.059,-9.277,0
1664462256.942,-35.156,-31.738,57.617,-18.066,0
1664462256.946,-43.945,-28.809,54.199,-12.207,0
1664462256.949,-25.879,-26.855,42.480,13.184,0
1664462256.953,2.930,-28.320,47.852,6.836,0
1664462256.957,-12.695,-31.250,56.641,-22.461,0
1664462256.961,-33.691,-35.645,55.176,-26.855,0
1664462256.965,-37.109,-41.016,52.246,-24.414,0
1664462256.966,-13.672,-43.945,51.758,-12.695,0
1664462256.970,-17.090,-35.156,62.500,-11.719,0
1664462256.974,-39.551,-29.785,60.059,-2.930,0
1664462256.978,-41.016,-34.180,49.805,-8.789,0
1664462256.982,-15.625,-36.133,49.805,-25.879,0
1664462256.986,-14.648,-37.109,54.199,-27.344,0
1664462256.990,-34.668,-32.227,49.805,-14.648,0
1664462256.993,-30.762,-22.461,54.199,-6.836,0
1664462256.997,-11.230,-25.391,62.012,-18.066,0
1664462257.001,-4.395,-32.715,54.199,-18.555,0
1664462257.005,-32.715,-30.762,51.270,-29.785,0
1664462257.009,-36.621,-33.203,52.734,-37.598,0
1664462257.011,-21.973,-35.645,56.641,-21.484,0
1664462257.015,3.418,-26.855,56.152,3.418,0
1664462257.019,-7.812,-23.438,47.852,-1.953,0
1664462257.023,-35.156,-32.227,49.805,-23.926,0
1664462257.027,-34.668,-34.180,62.500,-30.762,0
1664462257.031,-16.113,-37.109,57.617,-19.043,0
1664462257.035,-26.367,-37.109,51.270,-15.137,0
1664462257.038,-43.457,-35.156,58.594,-33.691,0
1664462257.042,-46.387,-41.016,59.082,-42.969,0
1664462257.046,-37.109,-35.645,54.199,-24.902,0
1664462257.050,-41.504,-38.574,58.105,-22.949,0
1664462257.054,-62.988,-46.387,64.941,-46.875,0
1664462257.071,-64.453,-42.969,61.035,-50.781,0
1664462257.075,-42.480,-39.062,60.059,-40.039,0
1664462257.079,-24.414,-38.086,58.594,-26.367,0
1664462257.083,-43.945,-36.133,54.199,-23.438,0
1664462257.087,-56.152,-35.645,50.781,-26.367,0
1664462257.091,-43.457,-35.645,56.152,-21.973,0
1664462257.095,-15.137,-31.738,74.219,-11.230,0
1664462257.098,-28.809,-32.227,81.055,-19.043,0
1664462257.102,-46.387,-36.133,74.219,-20.996,0
1664462257.106,-39.062,-34.180,61.035,-10.742,0
1664462257.110,-18.555,-36.133,63.965,-11.719,0
1664462257.114,-28.809,-41.992,69.336,-19.043,0
1664462257.116,-46.387,-36.133,63.477,-17.578,0
1664462257.120,-40.039,-29.297,64.453,-16.602,0
1664462257.124,-14.160,-29.297,63.965,-2.930,0
1664462257.128,0.977,-26.855,65.918,4.883,0
1664462257.132,-23.438,-30.273,70.801,-8.789,0
1664462257.136,-40.527,-34.180,61.523,-7.324,0
1664462257.140,-22.949,-27.344,62.500,2.930,0
1664462257.143,-4.883,-33.691,62.988,1.465,0
1664462257.147,-29.297,-38.086,57.129,-5.371,0
1664462257.151,-43.457,-29.785,47.363,-5.371,0
1664462257.155,-31.738,-30.762,49.316,-22.461,0
1664462257.159,-20.020,-36.133,52.734,-24.902,71
1664462257.161,-33.203,-36.133,47.363,-22.949,0
1664462257.165,-41.504,-32.715,50.293,-37.598,0
1664462257.169,-39.551,-29.297,56.152,-40.527,0
1664462257.173,-13.184,-28.809,55.664,-22.949,0
1664462257.177,-13.672,-33.691,54.199,-18.555,0
1664462257.181,-39.062,-31.738,58.105,-23.926,0
1664462257.185,-36.133,-30.762,63.477,-30.762,0
1664462257.188,-11.230,-28.809,55.176,-26.855,0
1664462257.192,-12.207,-24.902,31.250,-11.719,0
1664462257.196,-32.227,-24.414,47.363,-15.625,0
1664462257.200,-31.738,-23.926,60.547,-16.602,0
1664462257.204,-21.973,-27.344,46.875,-10.254,0
1664462257.207,-6.348,-32.715,48.828,-8.789,0
1664462257.211,-27.344,-37.109,56.152,-18.555,0
1664462257.215,-35.645,-37.598,53.711,-20.996,0
1664462257.219,-20.996,-33.203,48.828,-10.254,0
1664462257.223,-5.859,-30.273,52.734,0.488,0
1664462257.227,-10.254,-21.484,55.176,10.254,0
1664462257.231,-21.973,-20.508,48.340,5.859,0
1664462257.234,-23.926,-28.320,47.852,-0.977,0
1664462257.238,-6.836,-28.809,47.852,11.719,0
1664462257.242,-7.812,-29.785,51.758,-2.441,0
1664462257.246,-26.855,-28.320,57.617,-8.789,0
1664462257.250,-27.344,-27.344,56.641,-1.465,0
1664462257.249,-5.859,-22.461,66.406,7.324,0
1664462257.253,0.000,-18.066,69.336,11.230,0
1664462257.257,-31.738,-24.414,57.129,-9.277,0
1664462257.261,-37.598,-27.344,51.270,-17.090,0
1664462257.265,-16.113,-22.949,57.129,-2.441,0
1664462257.269,-4.883,-25.391,53.711,11.230,0
1664462257.273,-31.250,-27.832,44.434,3.418,0
1664462257.276,-46.875,-28.320,40.527,-3.418,0
1664462257.280,-42.480,-32.715,40.527,-20.996,0
1664462257.284,-16.602,-34.668,41.504,-20.996,0
1664462257.288,-21.484,-35.156,47.363,-17.578,0
1664462257.292,-43.945,-32.715,57.617,-26.855,0
1664462257.294,-40.039,-27.832,62.500,-19.043,0
1664462257.298,-14.160,-30.273,57.617,-5.371,0
1664462257.302,-14.648,-23.438,57.617,-6.348,0
1664462257.306,-41.992,-20.020,62.500,-19.531,0
1664462257.310,-44.434,-20.508,64.941,-27.344,0
1664462257.314,-28.320,-24.902,60.547,-30.273,0
1664462257.318,-23.438,-34.668,53.711,-25.391,0
1664462257.321,-51.270,-32.227,47.852,-17.090,0
1664462257.325,-48.340,-27.832,48.828,-25.879,0
1664462257.329,-22.949,-26.367,59.082,-30.273,0
1664462257.333,-8.789,-29.785,63.477,-16.602,0
1664462257.337,-24.902,-31.738,53.711,-17.090,0
1664462257.339,-41.504,-26.367,46.875,-24.902,0
1664462257.343,-35.645,-29.785,50.781,-29.785,0
1664462257.347,-6.836,-29.785,49.316,-17.090,0
1664462257.351,-6.348,-24.414,60.547,0.000,0
1664462257.355,-29.785,-24.902,70.801,-4.395,0
1664462257.359,-34.668,-31.738,56.152,-11.230,0
1664462257.363,-12.207,-39.551,41.992,-0.488,0
1664462257.366,-12.695,-41.504,52.734,-4.883,0
1664462257.370,-28.809,-34.668,60.547,-21.973,0
1664462257.374,-32.715,-31.250,54.199,-23.438,0
1664462257.378,-24.414,-33.203,49.805,-11.230,0
1664462257.382,-12.207,-31.738,55.664,2.441,0
1664462257.384,-29.297,-30.273,65.918,-13.184,0
1664462257.388,-36.621,-32.715,61.523,-24.414,0
1664462257.392,-26.855,-31.738,55.664,-18.066,0
1664462257.396,0.488,-26.855,58.594,-4.395,0
1664462257.400,-8.789,-24.414,56.152,-12.207,0
1664462257.404,-30.762,-26.367,47.852,-11.230,0
1664462257.408,-33.691,-30.762,50.293,0.977,0
1664462257.411,-12.207,-31.738,64.941,-5.859,0
1664462257.415,-14.648,-31.738,67.871,-11.719,0
1664462257.419,-46.875,-30.273,64.941,-10.254,0
1664462257.423,-44.922,-29.785,57.617,-5.371,0
1664462257.427,-18.555,-30.762,61.035,0.977,0
1664462257.444,-16.113,-30.273,65.918,0.000,0
1664462257.448,-33.203,-28.320,57.617,-7.812,0
1664462257.452,-36.133,-28.320,53.223,-15.137,0
1664462257.456,-20.996,-32.227,55.664,-12.207,0
1664462257.460,-3.418,-31.250,54.199,-9.766,0
1664462257.464,-23.926,-26.855,47.363,0.488,0
1664462257.468,-44.922,-31.250,49.805,-5.371,0
1664462257.471,-32.715,-34.668,56.641,-24.414,0
1664462257.475,-2.441,-34.668,59.570,-18.555,0
1664462257.479,-29.297,-32.715,48.828,-15.137,0
1664462257.483,-49.805,-30.762,45.898,-26.855,0
1664462257.487,-32.715,-25.879,53.223,-26.855,0
1664462257.489,-12.207,-26.855,50.293,-13.184,0
1664462257.493,-18.555,-26.367,52.246,-8.301,0
1664462257.497,-42.480,-25.391,61.523,-20.508,0
1664462257.501,-41.016,-27.344,51.270,-26.367,0
1664462257.505,-17.090,-25.879,42.480,-9.766,0
1664462257.509,-13.184,-30.762,50.781,-6.836,0
1664462257.513,-31.738,-29.297,55.176,-20.508,0
1664462257.516,-40.527,-29.297,50.781,-21.973,0
1664462257.520,-30.273,-35.645,51.270,-13.184,0
1664462257.524,-4.395,-35.156,55.176,17.090,0
1664462257.528,-12.695,-38.574,55.664,16.113,0
1664462257.532,-29.297,-33.691,52.734,-8.789,0
1664462257.534,-24.414,-22.461,42.969,-24.414,0
1664462257.538,-9.277,-21.484,41.016,-26.855,0
1664462257.542,-27.832,-22.949,43.945,-28.320,0
1664462257.546,-37.109,-23.438,35.156,-35.156,0
1664462257.550,-33.691,-18.066,28.320,-34.668,0
1664462257.554,-19.531,-14.160,29.297,-26.855,0
1664462257.558,-14.160,-10.254,34.180,-25.879,0
1664462257.561,-38.574,-10.254,36.133,-37.598,0
1664462257.565,-45.898,-17.578,26.855,-38.086,0
1664462257.569,-31.738,-19.043,20.020,-29.785,0
1664462257.573,-11.230,-19.043,31.250,-25.391,0
1664462257.577,-37.109,-25.391,33.691,-33.691,0
1664462257.579,-49.316,-26.855,39.551,-39.062,0
1664462257.583,-25.391,-22.949,49.316,-28.320,0
1664462257.587,-10.254,-20.996,31.250,-16.113,0
1664462257.591,-31.738,-23.926,20.020,-26.855,0
1664462257.595,-48.828,-26.855,30.273,-50.293,0
1664462257.599,-43.457,-29.785,35.645,-44.434,0
1664462257.603,-14.648,-31.250,40.039,-24.902,0
1664462257.606,-14.160,-25.879,38.086,-23.438,0
1664462257.610,-39.551,-25.879,26.855,-25.879,0
1664462257.614,-36.133,-28.809,33.691,-38.086,0
1664462257.618,-10.742,-27.832,44.434,-27.344,0
1664462257.622,-19.043,-25.879,44.434,-18.066,0
1664462257.624,-42.969,-22.461,42.480,-32.715,0
1664462257.628,-41.504,-22.949,47.852,-26.367,0
1664462257.632,-19.531,-28.320,52.246,-6.348,0
1664462257.636,-6.348,-22.949,47.363,1.465,0
1664462257.640,-26.855,-21.484,45.410,-15.137,0
1664462257.644,-36.133,-24.414,50.781,-17.090,0
1664462257.648,-21.484,-25.879,42.969,-6.348,0
1664462257.651,5.371,-27.344,39.062,6.348,0
1664462257.655,-13.672,-24.414,51.270,-6.836,0
1664462257.659,-28.809,-28.320,51.270,-26.367,0
1664462257.663,-17.578,-34.180,42.969,-17.578,0
1664462257.667,20.020,-34.180,50.781,6.836,0
1664462257.670,17.578,-30.762,59.570,14.160,0
1664462257.674,-21.484,-25.879,45.410,-11.230,0
1664462257.678,-39.551,-21.973,35.156,-28.809,0
1664462257.682,-13.672,-16.113,38.574,-13.672,0
1664462257.686,-4.395,-16.602,43.457,-15.625,0
1664462257.690,-29.785,-18.555,36.133,-31.738,0
1664462257.694,-34.180,-18.066,25.391,-19.531,0
1664462257.697,-11.719,-12.207,24.902,2.930,0
1664462257.701,8.301,-10.254,21.484,-5.371,0
1664462257.705,-15.137,-15.625,23.438,-23.438,0
1664462257.709,-24.902,-22.949,30.762,-19.531,0
1664462257.713,-9.766,-21.484,36.621,-2.441,0
1664462257.716,19.531,-14.160,41.016,6.348,0
1664462257.720,-0.977,-17.578,32.715,-9.277,0
1664462257.724,-24.414,-22.949,35.156,-19.531,0
1664462257.728,-20.508,-23.926,40.039,-18.066,0
1664462257.732,-0.977,-21.973,36.621,-13.184,0
1664462257.736,-10.742,-23.438,35.156,-15.625,0
1664462257.740,-33.203,-22.461,38.086,-13.672,0
1664462257.743,-29.297,-15.137,47.363,-18.066,0
1664462257.747,-12.207,-12.695,49.805,-16.113,0
1664462257.751,-7.812,-18.555,48.340,-2.930,0
1664462257.755,-32.715,-27.344,43.945,-19.043,0
1664462257.759,-42.969,-31.738,44.434,-35.645,0
1664462257.761,-27.832,-28.320,42.969,-29.297,0
1664462257.765,-14.160,-25.391,39.551,-21.484,0
1664462257.769,-34.180,-20.020,48.828,-18.066,0
1664462257.773,-46.387,-24.902,55.176,-17.578,0
1664462257.777,-34.668,-27.832,49.805,-20.508,0
1664462257.781,-10.254,-24.902,41.016,-12.695,0
1664462257.785,-31.738,-25.879,35.645,-14.160,0
1664462257.788,-50.293,-30.273,50.781,-33.203,0
1664462257.792,-40.039,-34.180,54.688,-40.039,0
1664462257.796,-20.020,-33.203,43.457,-22.949,0
1664462257.800,-16.113,-28.320,44.922,-17.578,0
1664462257.804,-34.668,-27.344,45.898,-25.879,0
1664462257.822,-35.645,-33.203,41.016,-30.762,0
1664462257.826,-10.742,-32.715,41.992,-19.531,0
1664462257.830,0.977,-25.391,48.828,0.000,0
1664462257.834,-28.320,-26.855,43.945,-3.906,0
1664462257.838,-37.109,-27.832,44.434,-6.348,0
1664462257.842,-16.113,-25.391,47.852,-6.836,0
1664462257.846,2.930,-21.484,50.293,-13.672,0
1664462257.849,-20.996,-19.043,51.270,-25.879,0
1664462257.853,-33.691,-22.949,49.805,-28.320,0
1664462257.857,-16.602,-25.391,50.293,-6.836,0
1664462257.861,-0.977,-28.809,54.199,-6.348,0
1664462257.865,-13.184,-26.367,59.570,-20.508,0
1664462257.866,-30.762,-21.973,51.270,-20.020,0
1664462257.870,-29.785,-27.344,45.898,-16.113,0
1664462257.874,-10.254,-33.691,51.270,-16.113,0
1664462257.878,-11.719,-34.668,42.969,-11.719,0
1664462257.882,-28.320,-30.273,46.387,1.465,0
1664462257.886,-28.809,-31.738,65.430,4.395,0
1664462257.890,-12.695,-38.086,62.988,-7.812,0
1664462257.893,-10.742,-32.227,55.664,-25.391,0
1664462257.897,-43.945,-25.391,51.758,-37.598,0
1664462257.901,-50.293,-20.996,53.223,-19.531,0
1664462257.905,-37.109,-20.508,52.734,-23.926,0
1664462257.909,-17.090,-19.043,49.316,-26.367,0
1664462257.911,-31.250,-14.648,48.828,-29.297,0
1664462257.915,-46.875,-14.648,46.387,-36.621,0
1664462257.919,-41.504,-21.484,43.457,-28.809,0
1664462257.923,-16.113,-18.066,42.969,-6.348,0
1664462257.927,-25.391,-12.695,45.898,-3.418,0
1664462257.931,-43.457,-14.160,49.805,-18.066,0
1664462257.935,-38.086,-11.719,62.988,-23.438,0
1664462257.938,-15.625,-18.555,52.734,-16.113,0
1664462257.942,-26.855,-29.297,33.691,-14.160,0
1664462257.946,-56.152,-33.691,47.363,-29.297,0
1664462257.950,-48.828,-30.273,49.805,-33.691,0
1664462257.954,-26.367,-30.762,38.574,-21.484,0
1664462257.956,-12.207,-32.715,41.504,-12.695,0
1664462257.960,-34.668,-30.273,54.199,-27.344,0
1664462257.964,-42.480,-26.855,57.129,-32.227,0
1664462257.968,-27.832,-30.762,54.688,-22.461,0
1664462257.972,-3.906,-30.762,60.547,-5.371,0
1664462257.976,-16.113,-23.438,63.965,0.000,0
1664462257.980,-33.203,-27.344,60.059,-14.160,0
1664462257.983,-27.832,-31.738,56.641,-23.438,0
1664462257.987,-13.672,-38.086,52.246,-11.230,0
1664462257.991,-19.043,-37.598,48.828,-14.160,0
1664462257.995,-29.297,-34.180,44.922,-24.902,0
1664462257.999,-28.320,-32.227,47.852,-20.508,0
1664462258.001,-11.719,-30.273,58.594,-0.977,0
1664462258.005,-2.930,-32.227,64.941,-0.488,0
1664462258.009,-28.320,-32.227,58.594,-14.160,0
1664462258.013,-40.039,-33.691,58.594,-17.090,0
1664462258.017,-23.926,-33.691,56.641,-10.742,0
1664462258.021,-8.301,-29.297,54.688,-3.906,0
1664462258.025,-26.855,-32.227,61.035,-16.113,0
1664462258.028,-42.480,-35.156,53.711,-17.090,0
1664462258.032,-41.504,-32.227,56.152,-11.719,0
1664462258.036,-15.137,-29.785,56.152,-8.789,0
1664462258.040,-24.414,-28.320,53.711,-19.043,0
1664462258.044,-50.781,-30.273,57.617,-26.367,0
1664462258.046,-46.875,-35.645,59.570,-27.832,0
1664462258.050,-20.020,-38.086,54.199,-28.809,0
1664462258.054,-22.949,-37.109,50.781,-27.344,0
1664462258.058,-41.992,-33.203,58.105,-27.344,0
1664462258.062,-37.598,-30.762,57.617,-23.926,0
1664462258.066,-18.066,-24.414,51.758,-9.766,0
1664462258.070,-11.719,-21.484,50.781,-3.906,0
1664462258.073,-37.109,-20.996,52.734,-9.277,0
1664462258.077,-39.062,-26.367,58.594,-20.996,0
1664462258.081,-12.207,-29.297,60.059,-20.508,0
1664462258.085,-5.371,-21.973,43.945,-11.230,0
1664462258.089,-20.508,-22.949,38.086,-7.812,0
1664462258.092,-10.254,-26.855,57.617,-1.953,0
1664462258.096,0.977,-24.902,65.430,-0.488,0
1664462258.100,8.301,-22.949,65.430,0.488,0
1664462258.104,-13.184,-22.949,65.918,-14.648,0
1664462258.108,-20.020,-19.043,70.312,-16.602,0
1664462258.112,-11.719,-21.484,63.477,0.000,0
1664462258.116,5.859,-22.949,55.176,23.438,0
1664462258.119,6.348,-16.602,66.895,23.438,0
1664462258.123,-17.090,-18.555,70.312,-5.371,0
1664462258.127,-21.484,-26.367,48.828,-2.441,0
1664462258.131,3.906,-30.273,36.621,16.602,0
1664462258.135,2.930,-32.227,48.828,9.766,0
1664462258.136,-33.203,-32.227,54.199,-10.742,0
1664462258.140,-28.320,-23.926,54.199,-8.789,0
1664462258.144,-11.719,-21.973,60.059,0.000,0
1664462258.148,6.348,-26.367,61.523,4.883,0
1664462258.152,-14.160,-24.902,60.547,-10.742,0
1664462258.156,-37.109,-23.926,59.570,-23.438,0
1664462258.160,-22.949,-21.973,58.594,6.348,0
1664462258.163,-7.812,-22.949,62.012,12.207,0
1664462258.167,-24.414,-26.367,53.711,-9.277,0
1664462258.171,-40.527,-27.832,48.828,-14.648,0
1664462258.175,-39.551,-30.273,50.293,-19.043,0
1664462258.179,-17.090,-26.367,49.316,-12.207,0
1664462258.197,-15.137,-21.973,52.246,-10.254,0
1664462258.201,-38.086,-27.832,53.223,-22.949,0
1664462258.205,-37.598,-32.715,53.223,-28.809,0
1664462258.209,-17.090,-29.785,56.152,-22.461,0
1664462258.213,0.000,-22.461,60.059,-13.184,0
1664462258.217,-30.273,-22.461,52.246,-15.137,0
1664462258.221,-44.434,-23.926,55.176,-23.438,0
1664462258.224,-34.180,-23.438,57.129,-36.621,0
1664462258.228,-21.484,-22.461,56.152,-28.809,0
1664462258.232,-44.922,-16.602,58.105,-24.902,0
1664462258.236,-71.777,-20.508,52.734,-61.523,0
1664462258.240,-93.750,-28.320,38.574,-96.680,0
1664462258.241,-93.262,-25.879,33.203,-92.773,0
1664462258.245,-113.281,-25.391,28.809,-99.121,0
1664462258.249,-149.414,-27.832,30.762,-128.906,0
1664462258.253,-164.062,-30.273,30.762,-157.715,0
1664462258.257,-160.645,-36.133,28.809,-160.156,0
1664462258.261,-169.922,-37.598,37.109,-159.668,0
1664462258.265,-205.078,-32.715,39.551,-183.594,0
1664462258.268,-211.426,-34.668,38.086,-194.336,0
1664462258.272,-183.105,-32.227,41.992,-164.551,0
1664462258.276,-161.621,-31.738,27.832,-135.254,0
1664462258.280,-173.340,-38.086,27.832,-154.785,0
1664462258.284,-164.551,-33.691,41.016,-145.996,0
1664462258.286,-139.648,-34.180,29.297,-117.188,0
1664462258.290,-120.117,-40.527,29.785,-112.305,0
1664462258.294,-132.324,-42.969,40.527,-118.164,0
1664462258.298,-131.348,-41.016,39.062,-107.910,0
1664462258.302,-123.047,-43.457,28.809,-90.820,0
1664462258.306,-88.867,-46.875,27.832,-74.219,0
1664462258.310,-76.172,-43.457,36.133,-75.684,0
1664462258.313,-94.238,-44.434,32.715,-83.008,0
1664462258.317,-82.031,-42.969,28.809,-62.012,0
1664462258.321,-47.852,-41.992,39.062,-41.016,0
1664462258.325,-33.203,-42.969,34.180,-45.410,0
1664462258.329,-40.039,-39.551,34.180,-36.133,0
1664462258.331,-33.203,-38.086,52.246,-11.719,0
1664462258.335,-21.484,-43.457,52.246,-9.277,0
1664462258.339,0.000,-45.898,48.828,-1.953,0
1664462258.343,-12.695,-45.410,53.223,-6.348,0
1664462258.347,-14.648,-43.457,55.664,-9.277,0
1664462258.351,1.465,-41.504,44.922,0.488,0
1664462258.355,11.230,-42.480,46.875,9.277,0
1664462258.358,-2.441,-38.574,56.152,14.160,0
1664462258.362,-10.742,-40.527,55.176,26.855,0
1664462258.366,1.953,-43.945,62.500,14.648,0
1664462258.370,32.227,-37.109,64.941,21.484,0
1664462258.374,34.180,-32.715,51.270,38.574,0
1664462258.377,7.324,-32.715,53.223,26.855,0
1664462258.381,6.348,-35.156,65.430,20.996,0
1664462258.385,44.434,-26.855,72.754,39.062,0
1664462258.389,47.363,-29.785,66.895,39.062,0
1664462258.393,14.160,-41.016,52.734,17.578,0
1664462258.397,10.254,-39.062,58.594,17.090,0
1664462258.401,20.996,-41.504,62.500,24.414,0
1664462258.404,28.809,-45.898,59.082,33.691,0
1664462258.408,6.348,-42.480,62.988,26.855,0
1664462258.412,2.930,-37.109,62.500,16.602,0
1664462258.416,12.695,-36.133,51.758,23.438,0
1664462258.420,28.320,-34.180,41.504,54.688,0
1664462258.421,22.461,-32.227,60.547,51.758,0
1664462258.425,5.371,-33.203,72.754,31.738,0
1664462258.429,11.230,-32.715,71.289,32.715,0
1664462258.433,37.598,-27.832,80.566,41.016,0
1664462258.437,39.062,-23.926,85.938,41.016,0
1664462258.441,7.812,-32.715,71.289,27.344,0
1664462258.445,1.465,-38.574,62.500,32.227,0
1664462258.448,22.461,-37.109,60.059,55.176,0
1664462258.452,25.879,-39.062,57.617,36.621,0
1664462258.456,8.301,-38.086,63.965,14.648,0
1664462258.460,0.977,-38.086,62.012,20.508,0
1664462258.464,10.742,-34.668,59.082,32.715,0
1664462258.466,35.156,-32.227,62.012,44.434,0
1664462258.470,18.066,-34.180,63.477,27.344,0
1664462258.474,1.465,-34.180,58.105,19.531,0
1664462258.478,3.906,-34.668,57.617,30.273,0
1664462258.482,19.043,-36.621,63.965,40.039,0
1664462258.486,16.113,-30.273,65.430,41.504,0
1664462258.490,2.930,-26.855,59.570,39.551,0
1664462258.493,-1.953,-34.180,58.594,25.391,0
1664462258.497,8.301,-35.156,65.430,14.648,0
1664462258.501,13.672,-29.785,52.246,20.996,0
1664462258.505,-15.137,-31.738,51.270,7.812,0
1664462258.509,-17.090,-39.551,56.641,-2.930,0
1664462258.511,20.020,-37.598,53.223,19.531,0
1664462258.515,34.668,-34.668,58.105,33.691,0
1664462258.519,-2.930,-40.039,58.594,13.672,0
1664462258.523,-29.785,-39.551,61.035,-4.883,0
1664462258.527,-13.184,-32.715,71.777,2.930,0
1664462258.531,14.160,-28.320,62.500,23.926,0
1664462258.535,-15.625,-38.086,57.617,20.508,0
1664462258.538,-34.180,-42.969,72.754,-7.812,0
1664462258.542,-23.438,-42.480,70.312,-7.812,0
1664462258.546,-3.418,-43.945,59.570,15.625,0
1664462258.550,-11.230,-37.598,59.082,8.301,0
1664462258.554,-25.879,-31.738,62.500,0.000,0
1664462258.571,-15.625,-34.180,60.059,4.883,0
1664462258.575,-6.836,-34.180,57.129,5.859,0
1664462258.579,-4.883,-31.250,53.223,2.930,0
1664462258.583,-17.578,-27.344,53.711,0.977,0
1664462258.587,-16.113,-27.344,59.082,0.488,0
1664462258.591,-2.930,-27.832,50.293,5.371,0
1664462258.595,4.395,-24.414,58.105,15.137,0
1664462258.598,-18.555,-23.926,77.637,9.277,0
1664462258.602,-25.879,-28.809,67.871,-1.465,0
1664462258.606,-16.602,-35.645,43.457,0.000,0
1664462258.610,-1.465,-38.574,54.199,0.488,0
1664462258.614,-15.137,-38.574,62.500,-10.254,0
1664462258.616,-30.762,-32.227,54.688,-10.742,0
1664462258.620,-25.879,-26.855,59.570,-9.277,0
1664462258.624,-5.859,-27.832,60.059,-1.465,0
1664462258.628,-5.371,-25.391,68.359,-2.930,0
1664462258.632,-20.020,-23.438,71.289,-7.324,0
1664462258.636,-24.902,-24.902,68.359,-5.371,0
1664462258.640,-2.441,-23.926,66.895,4.395,0
1664462258.643,8.789,-22.461,70.801,3.906,0
1664462258.647,-18.066,-21.484,62.988,-4.395,0
1664462258.651,-21.484,-17.090,62.988,7.324,0
1664462258.655,-1.465,-14.648,80.078,11.719,0
1664462258.659,8.789,-19.043,63.965,12.695,0
1664462258.661,-16.602,-27.344,52.734,-1.465,0
1664462258.665,-36.133,-34.180,66.406,-15.625,0
1664462258.669,-27.832,-36.133,68.848,-13.184,0
1664462258.673,-3.906,-35.645,63.965,-4.883,0
1664462258.677,-14.160,-32.715,63.965,-6.836,0
1664462258.681,-13.184,-27.344,63.965,2.930,0
1664462258.685,1.465,-14.648,57.617,24.414,0
1664462258.688,10.254,-13.672,64.453,25.879,0
1664462258.692,-17.578,-33.203,66.406,9.766,0
1664462258.696,-43.945,-42.480,71.289,-6.348,0
1664462258.700,-36.621,-44.922,77.637,-18.066,0
1664462258.704,-19.531,-48.828,76.660,-5.859,0
1664462258.706,-11.719,-47.852,75.684,0.488,0
1664462258.710,-34.180,-46.875,76.660,-16.602,0
1664462258.714,-43.945,-47.363,79.102,-14.648,0
1664462258.718,-24.902,-39.551,63.965,2.441,0
1664462258.722,-7.812,-35.645,56.152,9.277,0
1664462258.726,-23.438,-29.785,63.477,-0.977,0
1664462258.730,-36.621,-24.414,68.359,-14.648,0
1664462258.733,-43.457,-35.645,68.848,-19.043,0
1664462258.737,-24.902,-41.016,61.523,-2.930,0
1664462258.741,-25.879,-35.156,62.012,-15.137,0
1664462258.745,-38.574,-34.668,65.918,-20.996,0
1664462258.749,-33.691,-40.527,66.406,-17.578,0
1664462258.751,-15.137,-36.133,57.617,-10.742,0
1664462258.755,-16.602,-32.227,55.664,-5.859,0
1664462258.759,-35.156,-28.809,59.082,-9.277,0
1664462258.763,-36.621,-21.484,55.176,-10.254,0
1664462258.767,-16.602,-20.508,63.477,-6.348,0
1664462258.771,-5.371,-18.555,68.848,-6.348,0
1664462258.775,-29.785,-23.926,70.801,-20.996,0
1664462258.778,-32.715,-25.391,72.266,-11.719,0
1664462258.782,-18.066,-19.043,66.406,2.441,0
1664462258.786,-4.883,-26.855,57.129,0.977,0
1664462258.790,-31.250,-33.203,57.129,-20.020,0
1664462258.794,-39.062,-28.809,57.129,-23.438,0
1664462258.796,-25.879,-29.297,57.617,-10.254,0
1664462258.800,-13.672,-34.180,51.270,2.441,0
1664462258.804,-24.414,-35.645,52.246,-2.930,0
1664462258.808,-39.551,-34.668,62.500,-16.602,0
1664462258.812,-37.109,-33.691,60.547,-18.066,0
1664462258.816,-13.672,-37.598,52.734,-4.883,0
1664462258.820,-11.230,-36.133,49.805,1.953,0
1664462258.823,-27.344,-27.832,53.223,1.953,0
1664462258.827,-30.273,-30.273,59.570,-9.277,0
1664462258.831,-21.484,-29.297,55.664,-4.395,0
1664462258.835,-3.906,-25.879,57.617,13.184,0
1664462258.839,-22.949,-31.250,64.453,2.441,0
1664462258.841,-33.203,-27.344,61.523,-10.254,0
1664462258.845,-18.555,-22.949,61.035,-7.812,0
1664462258.849,0.000,-20.508,69.824,2.930,0
1664462258.853,-13.184,-22.949,65.918,-0.977,0
1664462258.857,-26.367,-30.273,62.012,-11.230,0
1664462258.861,-24.414,-28.809,67.383,-12.207,0
1664462258.865,1.465,-23.926,62.012,3.418,0
1664462258.868,-6.836,-26.367,66.895,-3.418,0
1664462258.872,-27.832,-21.973,66.406,-20.996,0
1664462258.876,-20.020,-15.625,63.965,-11.719,0
1664462258.880,-4.395,-25.391,67.871,1.953,0
1664462258.884,-5.859,-31.738,54.688,5.371,0
1664462258.886,-32.715,-24.902,50.781,-4.883,0
1664462258.890,-25.391,-22.949,60.059,-4.883,0
1664462258.894,2.441,-23.926,66.895,10.254,0
1664462258.898,-2.441,-27.344,77.637,1.465,0
1664462258.902,-40.039,-31.738,81.055,-29.785,0
1664462258.906,-44.434,-30.762,68.359,-26.855,0
1664462258.910,-38.086,-35.645,57.129,-5.371,0
1664462258.913,-17.090,-40.527,67.871,-12.207,0
1664462258.917,-19.043,-41.992,62.500,-22.461,0
1664462258.921,-30.762,-34.668,52.734,-20.508,0
1664462258.925,-27.832,-33.691,49.805,-23.926,0
1664462258.929,-14.160,-42.480,44.434,-20.020,0
1664462258.946,-16.113,-35.645,55.176,-21.484,0
1664462258.950,-37.598,-37.598,59.570,-26.367,0
1664462258.954,-43.457,-42.969,59.570,-26.367,0
1664462258.958,-19.043,-36.621,63.477,-18.066,0
1664462258.962,-19.531,-41.016,60.547,-17.090,0
1664462258.966,-49.805,-39.551,54.199,-17.578,0
1664462258.970,-41.504,-33.691,57.617,-14.160,0
1664462258.973,-20.508,-34.668,62.500,-14.160,0
1664462258.977,-15.137,-38.574,59.082,-15.137,0
1664462258.981,-35.156,-36.133,51.758,-9.766,0
1664462258.985,-39.551,-22.949,55.664,-5.859,0
1664462258.989,-26.855,-22.461,59.570,-10.742,0
1664462258.991,-3.906,-30.762,54.199,-4.883,0
1664462258.995,-23.438,-34.668,52.246,-16.113,0
1664462258.999,-45.898,-33.203,67.383,-28.809,0
1664462259.003,-34.180,-31.738,74.219,-29.297,0
1664462259.007,-16.113,-35.156,61.035,-14.160,0
1664462259.011,-19.043,-34.180,51.758,-5.859,0
1664462259.015,-30.762,-29.785,54.199,-12.207,0
1664462259.018,-38.574,-35.645,53.711,-21.973,0
1664462259.022,-28.809,-41.016,48.340,-18.066,0
1664462259.026,-22.949,-38.086,46.875,-13.672,0
1664462259.030,-40.039,-34.668,56.641,-26.855,0
1664462259.034,-37.109,-31.738,52.734,-24.902,0
1664462259.036,-23.438,-30.762,41.016,-9.277,0
1664462259.040,-6.348,-28.809,53.711,4.395,0
1664462259.044,-26.367,-29.785,53.711,-5.371,0
1664462259.048,-37.598,-33.691,46.875,-4.883,0
1664462259.052,-29.297,-36.621,53.223,-5.859,0
1664462259.056,-7.812,-27.344,53.711,-3.906,0
1664462259.060,-8.301,-17.090,59.082,-5.859,0
1664462259.063,-28.809,-20.508,64.941,-19.043,0
1664462259.067,-38.574,-32.227,57.617,-14.160,0
1664462259.071,-27.832,-38.574,52.246,-5.371,0
1664462259.075,-23.438,-38.574,59.570,-10.742,0
1664462259.079,-39.551,-39.062,55.664,-18.066,0
1664462259.081,-33.691,-30.762,47.363,-10.254,0
1664462259.085,-7.812,-20.508,51.758,5.371,0
1664462259.089,-6.348,-23.438,60.547,0.977,0
1664462259.093,-34.180,-28.320,66.406,-18.066,0
1664462259.097,-28.809,-24.902,64.453,-16.113,0
1664462259.101,-12.695,-24.414,54.688,2.930,0
1664462259.105,-4.395,-25.391,59.570,8.789,0
1664462259.108,-20.508,-25.391,61.523,-3.418,0
1664462259.112,-28.320,-25.879,57.617,4.883,0
1664462259.116,-16.113,-26.855,60.547,-2.930,0
1664462259.120,-10.254,-27.344,56.152,-4.395,0
1664462259.124,-27.344,-30.273,48.828,-3.906,0
1664462259.126,-40.039,-34.180,44.434,-20.508,0
1664462259.130,-34.180,-38.086,51.270,-24.902,0
1664462259.134,-15.137,-31.738,53.711,-9.277,0
1664462259.138,-7.324,-20.020,53.223,7.324,0
1664462259.142,-34.180,-29.785,54.688,-10.254,0
1664462259.146,-42.480,-34.668,49.316,-20.508,0
1664462259.150,-24.414,-31.250,51.758,-3.418,0
1664462259.153,-13.184,-34.180,55.176,8.301,0
1664462259.157,-41.504,-30.273,56.641,-8.301,0
1664462259.161,-41.504,-27.344,59.570,-15.625,0
1664462259.165,-19.531,-32.227,57.617,0.000,0
1664462259.169,-8.789,-39.551,47.852,6.836,0
1664462259.171,-25.879,-37.598,45.410,-9.277,0
1664462259.175,-34.180,-31.738,49.316,-14.648,0
1664462259.179,-29.785,-31.738,53.711,-4.883,0
1664462259.183,-10.254,-32.227,57.617,8.789,0
1664462259.187,-5.859,-31.250,64.453,1.953,0
1664462259.191,-23.438,-29.785,57.617,-10.254,0
1664462259.195,-30.273,-31.738,42.969,-14.648,0
1664462259.198,-18.066,-35.645,40.039,0.977,0
1664462259.202,-20.020,-34.180,50.293,-7.812,0
1664462259.206,-39.062,-28.809,61.523,-23.926,0
1664462259.210,-37.598,-30.273,61.035,-17.090,0
1664462259.214,-15.137,-29.785,53.711,-10.742,0
1664462259.216,3.418,-24.902,46.875,-13.184,0
1664462259.220,-26.367,-24.902,46.387,-23.926,0
1664462259.224,-46.387,-31.738,51.270,-34.180,0
1664462259.228,-36.133,-37.109,46.387,-38.574,0
1664462259.232,-17.578,-34.668,46.875,-24.414,0
1664462259.236,-31.738,-27.832,58.105,-24.414,0
1664462259.240,-40.039,-31.250,52.246,-24.902,0
1664462259.243,-32.227,-32.715,48.340,-22.949,0
1664462259.247,-15.625,-27.344,53.711,-12.695,0
1664462259.251,-15.625,-28.809,49.805,-2.930,0
1664462259.255,-28.809,-31.738,42.480,-3.906,0
1664462259.259,-31.738,-29.785,43.457,-17.578,0
1664462259.261,-19.043,-28.320,40.039,-17.090,0
1664462259.265,-10.254,-34.668,43.945,-9.766,0
1664462259.269,-28.809,-34.668,51.270,-20.996,0
1664462259.273,-30.762,-33.203,48.340,-21.973,0
1664462259.277,-15.137,-35.156,45.898,-14.160,0
1664462259.281,-3.906,-25.879,45.898,-1.953,0
1664462259.285,-30.273,-20.996,38.086,1.465,0
1664462259.288,-34.180,-22.461,48.828,-10.254,0
1664462259.292,-21.973,-21.484,51.270,-15.625,0
1664462259.296,-11.230,-25.391,32.227,-6.348,0
1664462259.300,-18.555,-27.832,37.109,-7.812,0
1664462259.304,-38.086,-26.855,33.203,-19.531,0
1664462259.321,-34.180,-25.391,30.762,-16.113,0
1664462259.325,-0.488,-23.926,46.875,6.836,0
1664462259.329,-8.301,-25.391,49.316,5.859,0
1664462259.333,-38.574,-26.855,47.363,-7.324,0
1664462259.337,-31.738,-25.879,46.875,-12.207,0
1664462259.341,-21.484,-26.855,38.574,-12.695,0
1664462259.345,-20.508,-25.879,41.504,-12.695,0
1664462259.348,-35.645,-26.855,41.504,-25.879,0
1664462259.352,-35.156,-31.738,36.621,-25.391,0
1664462259.356,-26.855,-33.691,32.227,-3.418,0
1664462259.360,-3.418,-30.762,43.945,11.719,0
1664462259.364,-16.113,-29.785,44.922,-5.859,0
1664462259.366,-29.785,-32.715,33.203,-16.113,0
1664462259.370,-21.973,-36.621,49.316,-8.301,0
1664462259.374,-6.348,-40.527,53.223,-5.371,0
1664462259.378,-16.113,-41.504,40.039,-12.695,0
1664462259.382,-39.062,-42.480,42.969,-21.484,0
1664462259.386,-30.273,-35.645,43.945,-16.113,0
1664462259.390,-9.277,-31.738,38.574,-6.348,0
1664462259.393,-14.648,-38.086,34.668,-13.184,0
1664462259.397,-36.621,-35.645,35.645,-20.996,0
1664462259.401,-44.922,-33.691,36.621,-12.207,0
1664462259.405,-21.973,-35.156,51.270,-14.160,0
1664462259.409,-9.766,-29.785,61.035,-16.113,0
1664462259.411,-35.156,-32.227,43.945,-26.367,0
1664462259.415,-46.387,-39.062,28.809,-31.250,0
1664462259.419,-36.133,-41.504,36.133,-23.926,0
1664462259.423,-15.625,-38.086,47.852,-9.766,0
1664462259.427,-39.551,-36.133,51.270,-15.625,0
1664462259.431,-54.199,-38.574,45.898,-21.973,0
1664462259.435,-40.039,-36.133,42.969,-17.090,0
1664462259.438,-14.648,-34.668,46.387,-12.207,0
1664462259.442,-27.344,-41.992,45.898,-12.207,0
1664462259.446,-52.246,-37.598,49.316,-12.695,0
1664462259.450,-35.156,-30.273,52.246,-10.254,0
1664462259.454,-16.113,-35.645,42.480,-3.418,0
1664462259.455,-27.344,-39.062,40.527,-10.742,0
1664462259.459,-44.434,-36.133,48.828,-29.297,0
1664462259.463,-35.156,-34.668,50.781,-31.250,0
1664462259.467,-17.090,-36.133,43.945,-19.531,0
1664462259.471,-5.859,-32.715,44.434,-6.836,0
1664462259.475,-27.344,-31.738,54.199,-11.230,0
1664462259.479,-23.926,-29.297,58.105,-17.090,0
1664462259.482,-1.953,-24.414,49.805,-4.395,0
1664462259.486,9.766,-21.973,42.969,20.996,0
1664462259.490,-6.836,-21.484,55.176,-3.418,0
1664462259.494,-26.367,-28.320,54.688,-21.973,0
1664462259.498,-30.273,-33.691,52.734,-10.742,0
1664462259.501,-17.090,-34.180,52.734,-0.488,0
1664462259.505,-19.531,-40.527,46.875,-12.207,0
1664462259.509,-36.133,-44.922,45.410,-24.414,0
1664462259.513,-35.156,-41.504,49.805,-16.113,0
1664462259.517,-23.438,-39.062,49.805,-10.254,0
1664462259.521,-23.926,-40.527,48.828,-8.301,0
1664462259.525,-34.180,-38.086,53.711,-11.719,0
1664462259.528,-29.297,-32.715,55.176,-2.441,0
1664462259.532,-14.160,-30.762,59.570,11.719,0
1664462259.536,0.977,-34.180,61.523,7.324,0
1664462259.540,-27.832,-33.203,60.547,-10.742,0
1664462259.544,-39.551,-33.203,52.246,-15.137,0
1664462259.546,-33.203,-34.180,53.223,-15.137,0
1664462259.550,-14.160,-35.156,65.918,-3.906,0
1664462259.554,-14.648,-34.180,66.406,1.953,0
1664462259.558,-29.297,-30.273,64.941,0.000,0
1664462259.562,-31.250,-29.297,60.547,-11.230,0
1664462259.566,-18.555,-37.109,54.688,-6.348,0
1664462259.570,-13.672,-33.691,53.711,-0.488,0
1664462259.573,-28.809,-22.949,49.316,12.207,0
1664462259.577,-35.645,-29.785,58.105,-0.977,0
1664462259.581,-14.648,-34.668,62.988,-7.324,0
1664462259.585,-3.906,-29.297,56.152,8.789,0
1664462259.589,-32.227,-33.203,55.176,-12.207,0
1664462259.591,-42.480,-37.109,56.152,-30.273,0
1664462259.595,-22.461,-32.227,56.152,-21.973,0
1664462259.599,-9.277,-33.203,45.898,-12.207,0
1664462259.603,-26.855,-32.715,39.062,-14.160,0
1664462259.607,-34.668,-31.250,51.270,-18.555,0
1664462259.611,-25.391,-31.250,59.570,-11.230,0
1664462259.615,-9.766,-32.227,59.570,0.000,0
1664462259.618,-26.367,-33.203,63.965,-19.043,0
1664462259.622,-40.039,-36.621,63.965,-35.645,0
1664462259.626,-31.250,-40.039,61.035,-29.297,0
1664462259.630,-7.324,-38.574,48.340,-13.184,0
1664462259.634,-2.441,-36.133,50.293,-11.230,0
1664462259.636,-18.555,-34.180,59.082,-68.848,0
1664462259.640,-20.508,-28.320,58.105,-51.758,0
1664462259.644,-8.789,-27.344,61.035,-13.184,0
1664462259.648,1.953,-23.438,65.430,-34.668,0
1664462259.652,-24.902,-24.902,62.500,-37.598,0
1664462259.656,-46.875,-33.203,49.805,-33.691,0
1664462259.660,-35.645,-35.645,43.945,-22.461,0
1664462259.663,-11.719,-35.645,59.082,-24.414,0
1664462259.667,-25.391,-36.133,61.035,-30.273,0
1664462259.671,-36.133,-30.762,45.410,-25.391,0
1664462259.675,-25.879,-28.809,50.293,-24.902,0
1664462259.679,-5.859,-26.367,61.523,-14.648,0
1664462259.681,-5.859,-23.926,60.059,-6.348,0
1664462259.685,-26.367,-32.227,51.270,-17.090,0
1664462259.689,-38.574,-38.574,48.828,-21.484,0
1664462259.693,-18.066,-34.180,55.176,-8.301,0
1664462259.697,-5.371,-28.320,64.453,-8.301,0
1664462259.701,-31.738,-35.645,54.199,-9.766,0
1664462259.705,-38.574,-32.227,58.594,-7.812,0
1664462259.708,-14.160,-27.832,71.777,-11.719,0
1664462259.712,-2.930,-25.391,66.406,-7.324,0
1664462259.716,-14.160,-21.484,52.734,-7.812,0
1664462259.720,-14.160,-23.438,48.828,-12.695,0
1664462259.724,-10.254,-20.020,59.570,-12.695,0
1664462259.742,0.488,-23.438,58.594,0.977,0
1664462259.746,-22.949,-28.809,56.152,1.465,0
1664462259.750,-33.691,-24.902,64.453,6.348,0
1664462259.754,-25.391,-23.926,61.035,7.812,0
1664462259.758,-8.301,-24.902,59.082,8.301,0
1664462259.762,-12.207,-25.879,67.871,0.488,0
1664462259.766,-33.203,-22.949,57.129,-7.324,0
1664462259.769,-36.133,-21.973,49.805,-4.395,0
1664462259.773,-19.043,-21.484,58.594,-1.465,0
1664462259.777,-16.602,-22.461,61.035,-6.348,0
1664462259.781,-45.410,-29.785,62.500,-28.809,0
1664462259.785,-48.340,-31.250,61.523,-27.344,0
1664462259.786,-23.438,-24.414,45.410,-10.254,0
1664462259.790,-13.184,-24.902,46.875,0.000,0
1664462259.794,-27.832,-29.785,52.734,-15.137,0
1664462259.798,-37.598,-32.227,42.480,-18.555,0
1664462259.802,-39.062,-34.668,47.852,-9.766,0
1664462259.806,-6.348,-32.227,54.199,-5.371,0
1664462259.810,-3.906,-21.973,55.664,-12.695,0
1664462259.813,-39.062,-21.973,61.035,-26.367,0
1664462259.817,-62.988,-38.574,45.410,-32.227,0
1664462259.821,-45.410,-41.992,46.875,-24.902,0
1664462259.825,-47.852,-40.527,59.082,-35.156,0
1664462259.829,-62.500,-38.574,47.363,-46.875,0
1664462259.831,-60.547,-36.621,44.434,-44.922,0
1664462259.835,-49.805,-37.598,51.270,-40.527,0
1664462259.839,-35.645,-34.180,46.387,-27.832,0
1664462259.843,-54.688,-34.668,39.551,-33.691,0
1664462259.847,-62.012,-39.551,54.688,-30.273,0
1664462259.851,-41.992,-41.016,66.895,-21.973,0
1664462259.855,-35.645,-41.992,62.988,-29.785,0
1664462259.858,-66.895,-47.852,53.711,-40.527,0
1664462259.862,-74.707,-46.875,48.340,-33.691,0
1664462259.866,-57.129,-40.527,54.199,-31.738,0
1664462259.870,-23.438,-38.574,40.527,-16.113,0
1664462259.874,-26.855,-34.668,41.992,-14.160,0
1664462259.876,-48.340,-35.645,58.594,-28.320,0
1664462259.880,-49.316,-41.016,61.035,-20.020,0
1664462259.884,-27.344,-39.062,54.688,-4.395,0
1664462259.888,-22.949,-30.762,53.711,1.953,0
1664462259.892,-42.480,-35.645,56.152,-13.672,0
1664462259.896,-41.016,-36.133,56.641,-22.949,0
1664462259.900,-13.672,-32.715,52.246,-4.395,0
1664462259.903,-1.953,-33.691,46.387,7.324,0
1664462259.907,-24.414,-32.227,45.898,-9.277,0
1664462259.911,-36.133,-38.086,51.758,-19.043,0
1664462259.915,-24.414,-38.574,52.734,-7.812,0
1664462259.919,-0.488,-32.227,57.617,7.812,0
1664462259.921,-19.531,-32.227,63.965,-7.324,0
1664462259.925,-37.598,-32.715,59.082,-20.020,0
1664462259.929,-27.832,-32.715,52.734,-15.625,0
1664462259.933,-4.883,-28.809,52.734,-9.766,0
1664462259.937,-7.324,-23.926,56.641,-7.324,0
1664462259.941,-34.180,-27.832,53.711,-18.066,0
1664462259.945,-31.738,-27.344,53.223,-17.578,0
1664462259.948,-8.301,-28.809,43.945,5.859,0
1664462259.952,-7.324,-33.691,54.199,-6.836,0
1664462259.956,-20.020,-30.273,66.406,-20.508,0
1664462259.960,-22.461,-25.391,60.547,-7.324,0
1664462259.964,0.488,-20.508,52.246,-5.371,0
1664462259.981,6.836,-23.438,49.805,-12.695,0
1664462259.985,-17.090,-27.832,60.547,-14.160,0
1664462259.989,-13.184,-21.973,56.641,3.418,0
1664462259.993,-4.883,-24.902,39.551,7.812,0
1664462259.997,9.766,-23.926,54.199,12.207,0
1664462260.001,-9.766,-23.438,62.500,5.371,0
1664462260.005,-29.297,-25.879,55.176,-7.324,0
1664462260.008,-17.090,-24.902,61.035,-1.465,0
1664462260.012,8.301,-24.902,71.777,0.977,0
1664462260.016,0.977,-26.855,66.406,0.000,0
1664462260.020,-19.531,-28.320,57.617,-1.465,0
1664462260.024,-13.184,-25.879,52.734,-7.812,0
1664462260.012,0.488,-24.902,49.805,8.789,0
1664462260.016,-3.906,-23.926,51.758,14.648,0
1664462260.020,-25.391,-28.320,51.270,-7.324,0
1664462260.024,-29.785,-31.738,51.270,-10.254,0
1664462260.028,-16.113,-33.691,48.828,-1.953,0
1664462260.032,-10.254,-31.738,45.410,1.465,0
1664462260.036,-31.738,-30.273,52.246,-6.836,0
1664462260.039,-35.645,-33.691,54.199,-14.648,0
1664462260.043,-25.391,-32.715,38.086,-15.625,0
1664462260.047,-2.930,-24.902,33.203,-0.977,0
1664462260.051,-21.973,-26.855,45.898,1.953,0
1664462260.055,-40.039,-31.738,59.082,-20.996,0
1664462260.071,-30.273,-31.738,56.152,-24.902,0
1664462260.075,-11.230,-33.691,49.316,-3.906,0
1664462260.079,-11.230,-33.203,49.316,-10.254,0
1664462260.083,-38.086,-32.715,45.898,-22.461,0
1664462260.087,-41.992,-36.621,46.875,-19.531,0
1664462260.091,-21.484,-38.086,46.387,-9.766,0
1664462260.095,-19.043,-40.527,32.227,-11.719,0
1664462260.098,-34.668,-33.691,39.551,-36.133,0
1664462260.102,-40.527,-30.273,45.898,-42.969,0
1664462260.106,-38.574,-37.598,41.992,-36.133,0
1664462260.110,-24.902,-37.598,48.340,-26.367,0
1664462260.114,-35.645,-37.598,51.758,-32.227,0
1664462260.117,-45.410,-41.016,45.410,-33.691,0
1664462260.121,-30.762,-36.133,44.922,-18.066,0
1664462260.125,6.348,-36.621,48.828,3.418,0
1664462260.129,5.371,-42.480,55.664,16.602,0
1664462260.133,-19.043,-36.621,50.293,4.883,0
1664462260.137,-33.203,-26.367,32.227,-14.160,0
1664462260.141,-10.254,-21.484,24.902,-2.930,0
1664462260.144,4.883,-16.602,37.598,7.812,0
1664462260.148,-9.766,-14.160,39.062,6.836,0
1664462260.152,-22.461,-21.484,28.809,-1.465,0
1664462260.156,-6.836,-23.926,28.809,-26.367,0
1664462260.160,5.859,-19.043,21.484,-31.250,0
1664462260.161,-4.395,-16.113,14.160,-27.344,0
1664462260.165,4.883,-14.648,21.973,-17.578,0
1664462260.169,21.973,-13.184,28.320,0.488,0
1664462260.173,32.715,-15.137,20.508,7.812,0
1664462260.177,6.836,-20.996,17.090,-6.348,0
1664462260.181,-15.137,-19.531,15.625,-16.113,0
1664462260.185,-7.812,-19.043,15.137,-8.301,0
1664462260.188,20.508,-16.602,23.926,10.742,0
1664462260.192,14.160,-14.648,25.391,25.391,0
1664462260.196,-10.254,-24.902,26.855,10.742,0
1664462260.200,-5.371,-24.414,32.715,-3.906,0
1664462260.204,17.578,-17.090,34.668,6.836,0
1664462260.206,6.836,-27.344,35.645,-7.812,0
1664462260.210,-19.531,-38.086,37.598,-22.461,0
1664462260.214,-17.578,-34.668,41.992,-16.113,0
1664462260.218,-0.488,-31.250,39.062,-7.324,0
1664462260.222,4.883,-28.320,42.480,3.906,0
1664462260.226,-20.508,-25.391,47.852,-3.418,0
1664462260.230,-32.227,-26.367,43.945,-17.578,0
1664462260.233,-18.066,-23.438,32.227,-13.184,0
1664462260.237,6.348,-19.043,39.062,15.625,0
1664462260.241,-10.254,-21.484,54.688,4.883,0
1664462260.245,-25.391,-27.344,45.898,-6.836,0
1664462260.249,-14.160,-23.926,39.062,8.301,0
1664462260.251,3.906,-25.391,39.551,5.859,0
1664462260.255,-3.906,-31.250,43.945,-11.719,0
1664462260.259,-21.484,-30.762,50.293,-17.578,0
1664462260.263,-22.949,-27.832,49.805,-16.602,0
1664462260.267,-5.859,-32.227,46.875,-8.301,0
1664462260.271,-1.465,-34.180,42.969,-4.395,0
1664462260.275,-17.090,-31.250,51.758,-17.090,0
1664462260.278,-22.949,-30.762,57.129,-8.301,0
1664462260.282,-12.695,-34.668,46.875,8.789,0
1664462260.286,-5.371,-37.109,43.945,-4.395,0
1664462260.290,-27.832,-30.273,55.176,-18.066,0
1664462260.294,-30.273,-29.785,54.199,-11.719,0
1664462260.296,-9.277,-37.109,43.945,4.883,0
1664462260.300,22.949,-34.668,50.781,21.484,0
1664462260.304,0.977,-32.227,55.664,-3.418,0
1664462260.308,-41.992,-28.809,42.480,-27.344,0
1664462260.312,-47.852,-27.344,31.738,-35.645,0
1664462260.316,-23.926,-29.785,32.715,-35.645,0
1664462260.320,-28.809,-25.879,28.809,-37.598,0
1664462260.323,-42.480,-14.648,28.320,-33.691,0
1664462260.327,-29.785,-6.836,40.527,-34.180,0
1664462260.331,-7.812,-12.207,38.086,-33.691,0
1664462260.335,-13.184,-17.578,26.855,-33.203,0
1664462260.339,-31.738,-15.625,26.367,-44.434,0
1664462260.341,-31.738,-16.113,21.973,-47.852,0
1664462260.345,-17.090,-19.043,24.414,-34.668,0
1664462260.349,-5.859,-17.090,37.109,-21.973,0
1664462260.353,-36.621,-19.531,36.621,-35.645,0
1664462260.357,-42.480,-17.578,33.203,-37.109,0
1664462260.361,-24.902,-17.578,32.715,-26.367,0
1664462260.365,-9.766,-21.484,26.367,-12.695,0
1664462260.368,-21.973,-20.508,33.691,-9.277,0
1664462260.372,-37.598,-22.949,37.598,-25.391,0
1664462260.376,-44.434,-25.879,38.574,-36.133,0
1664462260.380,-30.273,-29.785,41.504,-29.297,0
1664462260.384,-29.785,-28.809,46.875,-35.156,0
1664462260.386,-45.898,-25.391,41.016,-43.945,0
1664462260.390,-36.621,-26.367,36.133,-30.762,0
1664462260.394,-24.902,-26.367,35.156,-18.066,0
1664462260.398,-24.902,-29.785,39.551,-18.066,0
1664462260.402,-42.480,-37.598,45.898,-25.391,0
1664462260.406,-42.969,-31.738,36.133,-13.184,0
1664462260.410,-24.902,-22.949,38.086,8.789,0
1664462260.413,-13.672,-28.809,52.734,-8.789,0
1664462260.417,-34.668,-36.621,53.223,-33.203,0
1664462260.421,-43.945,-39.551,50.293,-36.621,0
1664462260.425,-29.785,-35.645,48.828,-36.133,0
1664462260.429,-8.301,-32.715,33.691,-23.438,0
1664462260.430,-20.996,-32.715,29.297,-22.949,0
1664462260.434,-34.668,-36.133,37.109,-21.484,0
1664462260.438,-28.320,-36.621,36.133,-9.766,0
1664462260.442,-14.648,-32.227,38.086,-9.766,0
1664462260.446,-17.090,-24.902,49.316,-24.414,0
1664462260.450,-32.715,-23.438,43.945,-19.043,0
1664462260.454,-27.832,-27.344,39.551,-2.930,0
1664462260.457,-0.488,-24.414,41.504,8.789,0
1664462260.461,0.977,-23.926,34.668,5.371,0
1664462260.465,-28.320,-25.879,36.133,-4.883,0
1664462260.469,-32.227,-25.879,47.363,-10.254,0
1664462260.473,-17.090,-22.461,46.387,-15.625,0
1664462260.491,-2.441,-20.996,34.668,-17.578,0
1664462260.495,-11.230,-18.066,34.668,-18.555,0
1664462260.499,-29.297,-18.066,41.992,-19.043,0
1664462260.503,-27.832,-22.461,44.922,-13.672,0
1664462260.507,-1.953,-23.926,49.316,9.277,0
1664462260.511,-13.672,-24.902,53.223,-5.371,0
1664462260.515,-31.250,-25.391,46.875,-26.855,0
1664462260.518,-23.926,-22.949,41.992,-17.090,0
1664462260.522,-5.371,-18.555,45.898,2.441,0
1664462260.526,-10.742,-16.113,55.176,7.812,0
1664462260.530,-21.973,-16.602,58.594,-6.348,0
1664462260.534,-7.812,-12.695,49.805,-7.324,0
1664462260.536,1.465,-11.230,45.898,-0.977,0
1664462260.540,-8.789,-19.531,49.805,-3.906,0
1664462260.544,-28.320,-25.391,51.758,-17.578,0
1664462260.548,-33.203,-26.367,39.062,-16.113,0
1664462260.552,-22.949,-33.691,29.297,-7.812,0
1664462260.556,-12.695,-36.133,29.785,-8.301,0
1664462260.560,-29.297,-33.691,42.969,-21.973,0
1664462260.563,-33.691,-28.809,56.641,-25.879,0
1664462260.567,-24.902,-23.438,48.340,-17.578,0
1664462260.571,-5.859,-16.113,54.688,0.000,0
1664462260.575,-9.277,-14.160,61.035,2.930,0
1664462260.579,-26.367,-22.949,47.852,-0.977,0
1664462260.581,-37.109,-31.738,41.016,-10.742,0
1664462260.585,-20.508,-28.320,56.152,-11.230,0
1664462260.589,-11.719,-27.832,62.988,-18.555,0
1664462260.593,-25.391,-26.855,48.828,-24.414,0
1664462260.597,-28.809,-25.391,49.805,-16.113,0
1664462260.601,-12.695,-33.203,51.270,-10.254,0
1664462260.605,2.441,-34.668,51.758,-6.348,0
1664462260.608,-23.926,-29.297,50.293,-15.137,0
1664462260.612,-36.621,-28.809,28.320,-10.254,0
1664462260.616,-20.996,-35.156,39.062,-17.578,0
1664462260.620,-1.953,-33.203,54.688,-1.953,0
1664462260.624,-8.301,-25.879,55.176,12.207,0
1664462260.627,-20.996,-29.297,48.828,-12.207,0
1664462260.631,-33.691,-33.203,43.457,-29.297,0
1664462260.635,-25.879,-37.109,41.016,-25.391,0
1664462260.639,-18.555,-34.668,36.133,-20.020,0
1664462260.643,-23.926,-22.461,50.781,-19.531,0
1664462260.647,-25.879,-24.902,49.805,-20.020,0
1664462260.651,-3.906,-27.344,37.109,-13.672,0
1664462260.654,-0.488,-25.879,34.668,-2.930,0
1664462260.658,-23.438,-25.879,46.387,-11.719,0
1664462260.662,-18.066,-28.320,57.617,-20.508,0
1664462260.666,-3.418,-34.180,46.387,-13.672,0
1664462260.670,-1.953,-32.227,41.504,-10.742,0
1664462260.671,-27.832,-29.785,42.969,-28.809,0
1664462260.675,-32.227,-26.367,42.969,-28.320,0
1664462260.679,-15.625,-26.367,47.363,-20.020,0
1664462260.683,-6.836,-29.785,48.340,-8.789,0
1664462260.687,-26.855,-29.785,41.992,-10.254,0
1664462260.691,-35.645,-30.762,41.016,-18.066,0
1664462260.695,-36.621,-34.668,45.410,-12.695,0
1664462260.698,-27.832,-35.156,44.434,-2.441,0
1664462260.702,-21.484,-32.227,38.574,-13.672,0
1664462260.706,-26.367,-25.879,36.133,-27.344,0
1664462260.710,-36.133,-27.832,48.340,-30.762,0
1664462260.714,-25.391,-31.738,49.805,-26.367,0
1664462260.716,-20.508,-33.203,46.387,-28.809,0
1664462260.720,-44.434,-31.738,48.340,-36.133,0
1664462260.724,-52.246,-29.297,45.410,-39.062,0
1664462260.728,-34.180,-33.691,47.363,-33.691,0
1664462260.732,-11.230,-34.668,42.480,-9.766,0
1664462260.736,-28.320,-26.367,35.645,-6.836,0
1664462260.740,-37.598,-22.461,41.504,-16.602,0
1664462260.743,-22.461,-19.043,53.711,-9.277,0
1664462260.747,-4.395,-20.996,55.176,-8.789,0
1664462260.751,-9.766,-21.484,53.711,-11.230,0
1664462260.755,-26.367,-19.043,48.828,-6.348,0
1664462260.759,-32.227,-23.926,56.152,-9.277,0
1664462260.761,-6.348,-29.785,62.988,-8.301,0
1664462260.765,-1.465,-25.391,53.223,-10.742,0
1664462260.769,-26.855,-22.949,58.594,-20.020,0
1664462260.773,-20.508,-24.414,61.523,-20.020,0
1664462260.777,2.441,-15.625,60.059,-8.789,0
1664462260.781,7.324,-13.184,47.363,4.883,0
1664462260.785,-13.184,-22.949,36.621,2.930,0
1664462260.788,-14.648,-24.902,58.594,-17.578,0
1664462260.792,-12.207,-31.738,68.359,-18.555,0
1664462260.796,-12.207,-36.621,66.895,-4.883,0
1664462260.800,-31.738,-36.133,71.289,-13.672,0
1664462260.804,-39.551,-30.762,74.707,-23.438,0
1664462260.820,-35.156,-26.367,64.453,-9.277,0
1664462260.824,-14.160,-26.855,56.641,15.625,0
1664462260.828,-15.625,-23.926,68.848,15.137,0
1664462260.832,-37.598,-32.227,61.523,-2.930,0
1664462260.836,-35.645,-42.969,55.176,-17.090,0
1664462260.840,-11.230,-41.504,55.176,-0.488,0
1664462260.844,-8.301,-35.156,53.711,8.789,0
1664462260.847,-23.438,-32.227,61.035,-9.277,0
1664462260.851,-23.926,-31.250,58.594,-16.113,0
1664462260.855,-13.184,-28.320,54.688,1.953,0
1664462260.859,-5.371,-31.250,51.758,3.906,0
1664462260.863,-26.855,-31.738,44.922,-1.465,0
1664462260.866,-29.297,-24.414,56.152,6.348,0
1664462260.870,-21.973,-29.785,51.270,-1.465,0
1664462260.874,-10.742,-30.762,49.805,-11.230,0
1664462260.878,-19.043,-26.367,60.547,-21.973,0
1664462260.882,-22.949,-25.391,67.383,-19.043,0
1664462260.886,-19.531,-28.809,65.430,-10.254,0
1664462260.890,-4.395,-26.367,56.152,2.441,0
1664462260.893,-3.906,-21.484,51.758,1.465,0
1664462260.897,-23.926,-26.855,51.270,-4.395,0
1664462260.901,-28.320,-26.367,54.688,-2.441,0
1664462260.905,-12.207,-24.902,61.035,-7.812,0
1664462260.909,-9.766,-26.855,62.012,-10.254,0
1664462260.910,-25.391,-24.902,60.547,-10.742,0
1664462260.914,-27.832,-26.367,57.129,-8.789,0
1664462260.918,-17.578,-24.414,60.547,-13.672,0
1664462260.922,-5.859,-21.484,54.199,-5.371,0
1664462260.926,-22.461,-20.508,48.340,-3.418,0
1664462260.930,-33.203,-24.414,38.086,-6.836,0
1664462260.934,-19.531,-21.973,46.387,-4.395,0
1664462260.937,-1.953,-20.020,64.453,1.953,0
1664462260.941,-23.438,-21.484,61.035,1.953,0
1664462260.945,-35.156,-22.461,70.312,-7.324,0
1664462260.949,-26.855,-24.902,66.895,-7.812,0
1664462260.953,-14.648,-25.391,47.852,2.930,0
1664462260.955,-20.508,-23.438,51.270,-9.277,0
1664462260.959,-37.598,-22.949,57.129,-37.109,0
1664462260.963,-39.062,-28.320,49.316,-42.969,0
1664462260.967,3.418,-20.996,50.293,-10.742,0
1664462260.971,6.836,-20.020,59.570,-10.742,0
1664462260.975,-36.133,-29.297,74.707,-32.715,0
1664462260.979,-46.875,-35.156,78.613,-41.504,0
1664462260.982,-40.527,-42.480,69.336,-35.645,0
1664462260.986,-32.715,-41.016,57.129,-9.277,0
1664462260.990,-42.480,-41.992,57.129,-24.902,0
1664462260.994,-53.711,-43.457,60.059,-36.621,0
1664462260.998,-41.016,-34.668,66.406,-17.578,0
1664462261.000,-18.066,-33.203,58.105,-9.277,0
1664462261.004,-36.133,-37.109,60.059,-24.902,0
1664462261.008,-48.340,-34.668,71.289,-29.297,0
1664462261.012,-37.598,-34.668,74.219,-19.043,0
1664462261.016,-21.973,-34.180,77.637,-14.160,0
1664462261.020,-23.438,-36.621,75.195,-10.742,0
1664462261.024,-41.016,-39.062,66.895,-14.160,0
1664462261.027,-40.039,-32.715,62.012,-10.742,0
1664462261.031,-16.113,-27.832,64.941,0.977,0
1664462261.035,-5.371,-27.832,74.219,-3.906,0
1664462261.039,-35.645,-29.297,63.477,-15.137,0
1664462261.043,-35.156,-25.879,55.664,-6.836,0
1664462261.045,-11.719,-24.414,75.684,2.441,0
1664462261.049,-2.930,-29.785,85.449,2.441,0
1664462261.053,-19.043,-31.738,74.707,0.000,0
1664462261.057,-31.738,-30.273,62.500,-7.812,0
1664462261.061,-23.438,-26.855,68.359,-10.254,0
1664462261.065,-6.836,-28.320,62.500,0.488,0
1664462261.069,-20.996,-33.691,55.664,-5.371,0
1664462261.072,-37.109,-33.203,53.223,-4.395,0
1664462261.076,-38.574,-34.668,49.805,-14.648,0
1664462261.080,-12.695,-33.203,62.988,-13.184,0
1664462261.084,-6.836,-30.762,61.035,-10.742,0
1664462261.088,-32.227,-35.645,56.641,-26.855,0
1664462261.090,-31.250,-37.598,64.453,-21.973,0
1664462261.094,-11.719,-31.738,65.918,-8.789,0
1664462261.098,-10.254,-27.344,59.570,-5.859,0
1664462261.102,-33.203,-23.438,56.641,-10.254,0
1664462261.106,-43.457,-25.879,49.805,-19.531,0
1664462261.110,-35.156,-32.227,44.434,-22.949,0
1664462261.114,-24.414,-34.668,39.551,-10.254,0
1664462261.117,-47.852,-42.969,38.086,-29.785,0
1664462261.121,-57.617,-45.898,50.781,-57.129,0
1664462261.125,-48.828,-39.062,59.082,-44.922,0
1664462261.129,-30.762,-36.133,53.711,-23.438,0
1664462261.133,-35.645,-40.039,51.758,-23.926,0
1664462261.134,-53.711,-40.039,54.199,-34.668,0
1664462261.138,-42.480,-35.156,54.688,-28.320,0
1664462261.142,-17.090,-34.668,44.922,-12.695,0
1664462261.146,-28.320,-41.504,39.062,-18.555,0
1664462261.150,-46.875,-47.852,41.992,-30.762,0
1664462261.154,-32.715,-44.434,52.734,-21.484,0
1664462261.158,-13.184,-37.109,58.105,2.441,0
1664462261.161,-4.883,-34.180,62.988,-7.324,0
1664462261.165,-24.414,-31.738,66.895,-23.926,0
1664462261.169,-29.297,-33.203,60.059,-21.484,0
1664462261.173,-22.461,-35.645,55.176,-22.461,0
1664462261.177,-9.277,-34.180,54.199,-14.160,0
1664462261.180,-12.695,-31.738,61.035,-8.789,0
1664462261.184,-4.883,-25.879,52.246,-9.277,0
1664462261.188,-1.465,-25.879,57.129,-9.766,0
1664462261.192,-11.719,-33.203,66.406,-9.766,0
1664462261.196,-29.785,-36.133,65.918,-27.832,0
1664462261.200,-47.852,-40.527,69.336,-29.297,0
1664462261.204,-51.270,-43.945,64.941,-27.344,0
1664462261.207,-33.691,-43.945,64.453,-20.020,0
1664462261.211,-24.902,-47.852,68.359,-6.836,0
1664462261.215,-42.969,-50.293,63.477,0.000,0
1664462261.219,-45.898,-43.457,67.383,-4.395,0
1664462261.223,-25.391,-33.203,68.359,-10.742,0
1664462261.240,-14.648,-32.715,60.547,-15.137,0
1664462261.244,-39.551,-40.039,65.430,-28.320,0
1664462261.248,-41.504,-39.062,69.336,-27.832,0
1664462261.252,-29.297,-36.133,64.941,-15.137,0
1664462261.256,-11.719,-37.598,66.895,4.883,0
1664462261.260,-25.879,-40.039,72.754,-3.418,0
1664462261.264,-41.992,-42.969,70.312,-22.461,0
1664462261.267,-40.039,-42.969,67.383,-22.461,0
1664462261.271,-20.508,-39.062,68.848,0.488,0
1664462261.275,-15.625,-35.156,58.594,19.043,0
1664462261.279,-25.391,-29.297,66.406,8.789,0
1664462261.283,-26.855,-23.926,69.336,-6.348,0
1664462261.285,-20.020,-30.762,55.176,-10.254,0
1664462261.289,-25.391,-32.227,63.965,-19.043,0
1664462261.293,-46.875,-36.133,64.941,-28.809,0
1664462261.297,-39.062,-41.504,58.105,-24.414,0
1664462261.301,-27.832,-35.156,62.500,-11.719,0
1664462261.305,-18.066,-26.855,57.617,-0.977,0
1664462261.309,-36.133,-26.855,44.922,-6.348,0
1664462261.312,-47.363,-31.250,55.176,-17.578,0
1664462261.316,-28.320,-28.809,63.477,-10.254,0
1664462261.320,-10.254,-24.414,65.430,10.254,0
1664462261.324,-19.043,-24.902,67.871,-2.930,0
1664462261.328,-31.250,-37.598,59.082,-16.113,0
1664462261.330,-34.180,-41.016,55.664,-13.184,0
1664462261.334,-18.066,-36.621,49.805,-6.836,0
1664462261.338,-17.578,-39.551,52.246,-12.695,0
1664462261.342,-33.203,-35.645,54.688,-17.090,0
1664462261.346,-30.762,-32.227,45.410,-11.230,0
1664462261.350,-16.113,-30.762,40.527,-3.418,0
1664462261.354,-18.066,-32.227,46.387,-9.766,0
1664462261.357,-40.039,-33.691,53.223,-12.695,0
1664462261.361,-41.504,-34.668,49.805,7.812,0
