timestamps,TP9,AF7,AF8,TP10
1668620271.981,-212.402,-117.188,-168.945,602.539
1668620271.985,-1000.000,-1000.000,-1000.000,-949.707
1668620271.989,-219.238,-249.023,-765.137,-1000.000
1668620271.993,-831.055,-842.285,211.914,-50.293
1668620271.997,242.188,245.605,63.965,-975.098
1668620272.001,-1000.000,-1000.000,-1000.000,-370.117
1668620272.005,-407.715,-664.551,-861.328,-1000.000
1668620272.008,-862.305,970.703,135.742,-205.566
1668620272.012,279.785,392.578,208.008,-850.586
1668620272.016,-1000.000,-1000.000,-901.855,170.410
1668620272.020,-872.070,-1000.000,-973.633,-1000.000
1668620272.024,702.637,301.270,-274.414,-624.023
1668620272.025,809.570,892.578,349.609,-985.840
1668620272.029,-758.301,-644.043,-489.746,264.160
1668620272.033,-1000.000,-1000.000,-1000.000,-1000.000
1668620272.037,10.254,-174.805,-610.352,-1000.000
1668620272.041,-809.570,-836.426,350.586,334.473
1668620272.045,-153.320,-42.480,-75.195,696.777
1668620272.049,-1000.000,-1000.000,-985.840,-884.277
1668620272.052,51.270,-43.457,-742.188,-1000.000
1668620272.056,-850.586,-880.371,183.105,-178.711
1668620272.060,239.258,241.211,127.930,-909.180
1668620272.064,-1000.000,-1000.000,-948.242,-169.922
1668620272.068,-531.738,-800.781,-940.918,-1000.000
1668620272.071,-916.992,823.730,-0.977,-273.438
1668620272.075,421.875,515.625,298.828,-858.887
1668620272.079,-1000.000,-994.629,-796.875,247.070
1668620272.083,-1000.000,-1000.000,-999.512,-1000.000
1668620272.087,484.375,130.859,-359.375,-781.250
1668620272.091,947.266,-990.723,394.043,871.094
1668620272.095,-585.938,-451.172,-340.332,383.301
1668620272.098,-1000.000,-1000.000,-1000.000,-1000.000
1668620272.102,-102.051,-202.148,-671.875,-1000.000
1668620272.106,-831.055,-847.656,349.609,208.496
1668620272.110,16.602,139.648,-5.371,825.684
1668620272.114,-1000.000,-1000.000,-1000.000,-727.539
1668620272.132,-234.863,-430.664,-860.840,-1000.000
1668620272.136,-825.684,-891.113,153.320,-189.453
1668620272.140,244.141,250.000,152.832,-882.812
1668620272.144,-1000.000,-1000.000,-979.492,-36.133
1668620272.148,-630.371,-929.688,-930.176,-1000.000
1668620272.152,-978.027,640.137,-30.273,-420.410
1668620272.156,546.875,639.160,358.887,-903.809
1668620272.159,-975.586,-921.875,-683.105,258.301
1668620272.163,-1000.000,-1000.000,-994.141,-1000.000
1668620272.167,248.535,-38.086,-316.895,-906.250
1668620272.171,-935.547,-901.367,453.125,706.055
1668620272.175,-401.367,-233.887,-250.000,497.070
1668620272.175,-1000.000,-1000.000,-1000.000,-1000.000
1668620272.179,-214.355,-221.191,-735.352,-1000.000
1668620272.183,-818.359,-815.918,246.582,79.590
1668620272.187,83.008,178.223,6.836,934.570
1668620272.191,-1000.000,-1000.000,-992.188,-555.664
1668620272.195,-29.297,-292.480,-833.984,-1000.000
1668620272.199,-860.840,-967.773,91.797,-202.637
1668620272.202,239.258,300.781,180.176,-857.910
1668620272.206,-1000.000,-1000.000,-898.926,120.605
1668620272.210,-756.348,-1000.000,-927.246,-1000.000
1668620272.214,878.906,456.055,-197.266,-531.250
1668620272.218,667.480,788.086,363.281,-938.965
1668620272.221,-950.195,-832.520,-568.359,261.230
1668620272.225,-1000.000,-1000.000,-1000.000,-1000.000
1668620272.229,286.133,56.152,-500.488,-1000.000
1668620272.233,-867.676,-885.254,387.695,526.855
1668620272.237,-210.938,-78.125,-122.559,601.562
1668620272.241,-1000.000,-1000.000,-1000.000,-950.195
1668620272.245,-219.238,-272.461,-775.391,-1000.000
1668620272.248,-831.543,-847.656,224.609,-80.566
1668620272.252,242.676,248.047,144.043,-931.152
1668620272.256,-1000.000,-1000.000,-966.797,-280.273
1668620272.260,-430.176,-676.270,-946.777,-1000.000
1668620272.264,-868.164,960.938,86.426,-213.379
1668620272.265,345.215,418.945,267.578,-841.797
1668620272.269,-1000.000,-1000.000,-893.066,246.094
1668620272.273,-924.316,-1000.000,-988.281,-1000.000
1668620272.277,650.879,233.887,-262.207,-637.207
1668620272.281,814.453,920.898,400.879,-981.445
1668620272.285,-756.836,-599.609,-430.664,262.695
1668620272.289,-1000.000,-1000.000,-1000.000,-1000.000
1668620272.292,-7.324,-176.270,-534.180,-1000.000
1668620272.296,-835.938,-854.492,432.129,334.473
1668620272.300,-91.797,50.781,-98.633,696.777
1668620272.304,-1000.000,-1000.000,-1000.000,-886.230
1668620272.308,-226.562,-354.004,-834.961,-1000.000
1668620272.311,-829.590,-868.164,141.602,-189.453
1668620272.315,247.070,250.977,102.539,-891.602
1668620272.319,-1000.000,-1000.000,-987.305,-91.797
1668620272.323,-532.227,-808.594,-924.316,-1000.000
1668620272.327,-982.422,733.887,-41.992,-319.336
1668620272.331,363.281,454.590,266.113,-867.676
1668620272.335,-1000.000,-968.750,-747.559,252.930
1668620272.338,-1000.000,-1000.000,-921.875,-1000.000
1668620272.342,454.102,84.961,-323.242,-779.785
1668620272.346,947.266,-955.078,354.980,871.582
1668620272.350,-583.008,-381.836,-351.074,381.836
1668620272.354,-1000.000,-1000.000,-1000.000,-1000.000
1668620272.356,-147.461,-208.984,-691.895,-1000.000
1668620272.360,-834.473,-844.238,273.926,175.293
1668620272.364,75.684,177.246,-23.438,873.047
1668620272.368,-1000.000,-1000.000,-1000.000,-661.621
1668620272.372,-240.723,-466.309,-874.023,-1000.000
1668620272.376,-822.266,-902.832,121.582,-197.266
1668620272.380,243.164,251.465,235.352,-866.699
1668620272.383,-1000.000,-1000.000,-880.859,41.016
1668620272.387,-649.414,-960.449,-966.797,-1000.000
1668620272.391,-990.234,587.402,-105.469,-428.711
1668620272.395,549.805,671.875,337.891,-898.926
1668620272.399,-975.586,-898.438,-671.875,257.324
1668620272.400,-1000.000,-1000.000,-1000.000,-1000.000
1668620272.404,231.934,-50.781,-477.539,-906.738
1668620272.408,-927.734,-882.812,408.203,706.543
1668620272.412,-384.766,-183.105,-198.242,501.465
1668620272.416,-1000.000,-1000.000,-1000.000,-997.559
1668620272.420,-214.844,-230.957,-713.379,-1000.000
1668620272.424,-835.449,-839.355,309.570,-3.906
1668620272.427,222.656,245.605,55.176,-994.629
1668620272.431,-1000.000,-1000.000,-1000.000,-421.875
1668620272.435,-346.680,-593.750,-870.605,-1000.000
1668620272.439,-842.285,-970.215,176.270,-204.102
1668620272.443,245.117,325.684,202.148,-851.074
1668620272.446,-1000.000,-1000.000,-923.340,145.508
1668620272.450,-790.039,-1000.000,-952.148,-1000.000
1668620272.454,844.727,394.531,-203.613,-534.668
1668620272.458,658.203,823.242,353.027,-936.523
1668620272.462,-913.574,-736.816,-548.340,257.812
1668620272.466,-1000.000,-1000.000,-1000.000,-1000.000
1668620272.470,72.754,-138.672,-553.711,-1000.000
1668620272.473,-838.379,-861.816,361.328,486.328
1668620272.477,-151.855,-40.527,-112.305,638.184
1668620272.481,-1000.000,-1000.000,-1000.000,-918.945
1668620272.485,-223.145,-285.156,-798.828,-1000.000
1668620272.489,-829.590,-849.609,173.828,-182.617
1668620272.506,243.652,247.559,77.637,-905.273
1668620272.510,-1000.000,-1000.000,-1000.000,-173.340
1668620272.514,-456.055,-715.332,-916.992,-1000.000
1668620272.518,-878.418,921.875,51.270,-213.379
1668620272.522,345.703,451.172,275.391,-838.379
1668620272.526,-1000.000,-1000.000,-823.242,246.582
1668620272.530,-960.449,-1000.000,-964.355,-1000.000
1668620272.533,594.238,193.848,-283.691,-637.207
1668620272.537,819.336,958.008,437.500,-979.980
1668620272.541,-752.441,-540.527,-335.449,259.766
1668620272.545,-1000.000,-1000.000,-1000.000,-1000.000
1668620272.549,-56.152,-187.988,-643.066,-1000.000
1668620272.551,-827.637,-850.586,356.445,238.281
1668620272.555,-7.324,85.938,-46.387,798.340
1668620272.559,-1000.000,-1000.000,-1000.000,-764.648
1668620272.563,-234.375,-373.535,-854.004,-1000.000
1668620272.567,-825.684,-872.070,145.508,-187.988
1668620272.571,244.629,247.070,142.090,-883.789
1668620272.575,-1000.000,-1000.000,-971.191,-65.918
1668620272.578,-585.938,-881.836,-941.895,-1000.000
1668620272.582,-945.312,716.797,50.781,-321.777
1668620272.586,449.219,579.590,350.586,-865.723
1668620272.590,-1000.000,-958.008,-782.715,249.512
1668620272.594,-1000.000,-1000.000,-990.723,-1000.000
1668620272.596,312.988,19.531,-415.039,-820.312
1668620272.600,-982.422,-931.641,367.188,819.336
1668620272.604,-482.910,-316.895,-301.270,435.547
1668620272.608,-1000.000,-1000.000,-1000.000,-1000.000
1668620272.612,-161.621,-210.938,-626.465,-1000.000
1668620272.616,-827.637,-841.309,367.188,163.574
1668620272.620,126.465,201.660,-2.930,925.293
1668620272.623,-1000.000,-1000.000,-1000.000,-554.688
1668620272.627,-246.582,-500.977,-785.156,-1000.000
1668620272.631,-818.359,-915.527,181.641,-194.336
1668620272.635,238.770,263.672,154.297,-865.234
1668620272.639,-1000.000,-1000.000,-959.961,41.016
1668620272.642,-695.801,-989.746,-954.102,-1000.000
1668620272.646,959.961,532.715,-144.531,-428.711
1668620272.650,561.523,715.332,329.102,-896.484
1668620272.654,-968.750,-855.957,-637.207,247.559
1668620272.658,-1000.000,-1000.000,-1000.000,-1000.000
1668620272.662,145.508,-91.309,-491.211,-994.141
1668620272.666,-841.309,-864.258,391.113,568.848
1668620272.669,-242.188,-150.879,-143.066,583.984
1668620272.673,-1000.000,-1000.000,-1000.000,-957.031
1668620272.677,-131.348,-152.344,-760.254,-1000.000
1668620272.681,-840.820,-851.074,229.492,-51.270
1668620272.685,241.211,246.582,50.293,-974.609
1668620272.687,-1000.000,-1000.000,-1000.000,-369.629
1668620272.691,-372.559,-623.535,-929.199,-1000.000
1668620272.695,-849.121,-990.723,71.289,-203.125
1668620272.699,243.652,367.676,233.887,-850.586
1668620272.703,-1000.000,-1000.000,-896.973,145.508
1668620272.707,-842.773,-1000.000,-952.148,-1000.000
1668620272.711,752.930,334.473,-204.590,-558.594
1668620272.714,740.234,863.281,480.469,-948.242
1668620272.718,-833.984,-684.570,-403.809,251.953
1668620272.722,-1000.000,-1000.000,-1000.000,-1000.000
1668620272.726,44.434,-149.902,-574.707,-1000.000
1668620272.730,-828.613,-858.398,375.488,334.473
1668620272.731,-102.539,-11.719,-110.840,696.777
1668620272.735,-1000.000,-1000.000,-1000.000,-884.277
1668620272.739,-227.051,-309.082,-818.359,-1000.000
1668620272.743,-828.613,-856.445,158.203,-178.711
1668620272.747,244.141,247.559,97.168,-905.762
1668620272.751,-1000.000,-1000.000,-997.559,-173.340
1668620272.755,-498.047,-769.531,-872.559,-1000.000
1668620272.758,-898.926,862.793,112.305,-213.379
1668620272.762,354.980,492.188,271.973,-838.379
1668620272.766,-1000.000,-1000.000,-828.125,239.258
1668620272.770,-994.141,-1000.000,-982.422,-1000.000
1668620272.774,499.512,148.438,-348.145,-753.906
1668620272.791,931.152,995.605,360.840,900.879
1668620272.795,-608.398,-476.562,-385.742,358.398
1668620272.799,-1000.000,-1000.000,-1000.000,-1000.000
1668620272.803,-102.539,-203.125,-650.391,-1000.000
1668620272.807,-807.129,-827.148,306.641,207.031
1668620272.811,-38.086,53.223,-43.945,826.172
1668620272.815,-1000.000,-1000.000,-984.863,-727.051
1668620272.818,42.480,-121.094,-790.039,-1000.000
1668620272.822,-846.680,-901.367,124.512,-186.035
1668620272.826,238.281,240.723,145.020,-885.254
1668620272.830,-1000.000,-1000.000,-943.359,-64.453
1668620272.834,-622.559,-921.387,-953.125,-1000.000
1668620272.821,-971.191,654.297,-90.820,-359.863
1668620272.825,500.488,618.164,332.520,-880.859
1668620272.829,-1000.000,-940.430,-698.242,248.047
1668620272.833,-1000.000,-1000.000,-1000.000,-1000.000
1668620272.837,300.781,15.137,-451.660,-908.203
1668620272.841,-937.012,-906.250,393.066,706.055
1668620272.845,-403.320,-271.484,-231.934,497.070
1668620272.848,-1000.000,-1000.000,-1000.000,-1000.000
1668620272.852,-207.031,-212.891,-717.285,-1000.000
1668620272.856,-838.867,-838.867,324.707,79.590
1668620272.860,134.277,219.727,42.969,934.570
1668620272.864,-1000.000,-1000.000,-1000.000,-554.688
1668620272.881,-271.484,-526.855,-885.254,-1000.000
1668620272.885,-827.148,-926.270,128.418,-196.289
1668620272.889,239.746,286.133,184.570,-865.723
1668620272.893,-1000.000,-1000.000,-957.031,58.594
1668620272.897,-749.023,-1000.000,-946.777,-1000.000
1668620272.901,892.578,471.191,-111.328,-502.930
1668620272.905,640.625,754.883,388.672,-932.617
1668620272.908,-927.734,-820.312,-590.820,258.301
1668620272.912,-1000.000,-1000.000,-986.328,-1000.000
1668620272.916,149.414,-89.355,-485.840,-1000.000
1668620272.920,-844.727,-866.699,356.934,526.855
1668620272.924,-213.379,-111.816,-169.434,602.539
1668620272.927,-1000.000,-1000.000,-1000.000,-949.707
1668620272.931,-219.727,-260.742,-701.660,-1000.000
1668620272.935,-831.055,-846.191,202.637,-49.805
1668620272.939,242.676,247.559,37.598,-974.609
1668620272.943,-1000.000,-1000.000,-1000.000,-370.117
1668620272.947,-414.062,-663.086,-898.926,-1000.000
1668620272.951,-863.770,972.656,73.242,-207.031
1668620272.954,299.316,399.902,217.773,-849.121
1668620272.958,-1000.000,-1000.000,-864.258,190.430
1668620272.962,-883.301,-1000.000,-936.523,-1000.000
1668620272.966,692.871,291.992,-276.855,-629.395
1668620272.970,811.035,898.438,377.930,-986.328
1668620272.972,-759.277,-636.719,-448.730,263.672
1668620272.976,-1000.000,-1000.000,-1000.000,-1000.000
1668620272.980,21.973,-162.598,-599.121,-1000.000
1668620272.984,-831.543,-857.910,357.422,334.473
1668620272.988,-100.098,15.137,-73.730,696.777
1668620272.992,-1000.000,-1000.000,-1000.000,-884.277
1668620272.996,-226.562,-344.238,-824.707,-1000.000
1668620272.999,-829.590,-868.164,174.316,-178.711
1668620273.003,245.117,251.465,176.758,-910.156
1668620273.007,-1000.000,-1000.000,-951.172,-168.457
1668620273.011,-529.785,-794.434,-949.219,-1000.000
1668620273.015,-915.039,831.543,57.129,-290.039
1668620273.017,444.824,526.367,314.941,-864.258
1668620273.021,-1000.000,-979.980,-812.500,249.512
1668620273.025,-1000.000,-1000.000,-1000.000,-1000.000
1668620273.029,427.246,81.055,-331.055,-780.762
1668620273.033,951.660,-995.605,401.367,871.582
1668620273.037,-585.938,-446.289,-353.516,383.789
1668620273.041,-1000.000,-1000.000,-1000.000,-1000.000
1668620273.044,-95.215,-197.754,-565.430,-1000.000
1668620273.048,-829.102,-847.168,425.293,208.496
1668620273.052,15.625,139.648,-57.617,825.684
1668620273.056,-1000.000,-1000.000,-1000.000,-728.027
1668620273.060,-235.352,-435.547,-871.582,-1000.000
1668620273.062,-825.195,-893.066,105.957,-192.871
1668620273.066,244.141,250.977,134.766,-877.441
1668620273.070,-1000.000,-1000.000,-965.820,-6.836
1668620273.074,-625.000,-924.316,-939.453,-1000.000
1668620273.078,-974.609,647.949,-93.262,-423.828
1668620273.082,544.434,637.695,324.707,-902.344
1668620273.086,-973.145,-921.875,-684.570,257.812
1668620273.089,-1000.000,-1000.000,-941.406,-1000.000
1668620273.093,235.352,-44.922,-421.387,-906.250
1668620273.097,-936.523,-896.484,361.328,706.055
1668620273.101,-400.391,-219.238,-214.355,497.070
1668620273.105,-1000.000,-1000.000,-1000.000,-1000.000
1668620273.107,-210.449,-223.633,-738.770,-1000.000
1668620273.111,-831.543,-832.031,243.164,76.660
1668620273.115,130.371,215.332,25.391,944.336
1668620273.119,-1000.000,-1000.000,-1000.000,-541.016
1668620273.123,-195.312,-454.590,-889.648,-1000.000
1668620273.127,-840.332,-940.918,97.656,-203.125
1668620273.131,239.258,302.246,279.297,-856.445
1668620273.134,-1000.000,-1000.000,-837.402,128.418
1668620273.138,-777.832,-1000.000,-975.586,-1000.000
1668620273.142,860.352,430.176,-181.152,-532.227
1668620273.146,657.715,783.203,355.957,-938.477
1668620273.150,-915.527,-786.621,-573.730,261.230
1668620273.152,-1000.000,-1000.000,-1000.000,-1000.000
1668620273.156,112.305,-121.094,-533.203,-1000.000
1668620273.160,-848.633,-864.746,390.137,527.344
1668620273.164,-209.961,-70.312,-137.207,600.098
1668620273.168,-1000.000,-1000.000,-1000.000,-948.730
1668620273.172,-219.238,-277.832,-750.488,-1000.000
1668620273.176,-833.008,-849.609,278.320,-104.980
1668620273.179,244.141,246.582,101.562,-934.082
1668620273.183,-1000.000,-1000.000,-1000.000,-269.531
1668620273.187,-457.031,-722.168,-896.973,-1000.000
1668620273.191,-880.371,914.062,127.930,-212.891
1668620273.195,352.051,433.594,243.652,-841.309
1668620273.197,-1000.000,-1000.000,-882.324,246.582
1668620273.201,-907.715,-1000.000,-955.566,-1000.000
1668620273.205,674.316,264.648,-259.766,-637.207
1668620273.209,808.594,927.246,373.535,-981.445
1668620273.213,-752.441,-591.797,-433.594,262.695
1668620273.217,-1000.000,-1000.000,-1000.000,-1000.000
1668620273.221,-50.293,-185.547,-595.703,-1000.000
1668620273.224,-841.309,-855.957,350.586,333.008
1668620273.228,-74.707,57.617,-67.871,703.125
1668620273.232,-1000.000,-1000.000,-1000.000,-881.836
1668620273.236,-227.051,-363.281,-841.797,-1000.000
1668620273.240,-829.102,-871.582,123.047,-189.941
1668620273.257,245.117,250.488,104.492,-889.160
1668620273.261,-1000.000,-1000.000,-986.816,-83.008
1668620273.265,-550.781,-830.078,-939.941,-1000.000
1668620273.269,-926.270,785.156,-38.086,-319.824
1668620273.273,450.684,552.734,295.898,-866.699
1668620273.277,-1000.000,-974.609,-746.094,252.930
1668620273.281,-1000.000,-1000.000,-992.188,-1000.000
1668620273.284,449.219,86.914,-371.094,-779.785
1668620273.288,946.289,-955.566,442.383,872.070
1668620273.292,-581.055,-380.859,-248.047,380.371
1668620273.296,-1000.000,-1000.000,-1000.000,-1000.000
1668620273.300,-169.922,-208.984,-680.664,-1000.000
1668620273.301,-838.867,-844.238,368.652,146.973
1668620273.305,86.914,178.223,53.711,882.324
1668620273.309,-1000.000,-1000.000,-1000.000,-642.578
1668620273.313,-241.211,-472.656,-903.809,-1000.000
1668620273.317,-821.289,-905.273,112.793,-196.777
1668620273.321,242.676,250.977,183.594,-866.699
1668620273.325,-1000.000,-1000.000,-962.891,41.016
1668620273.328,-651.855,-973.145,-973.145,-1000.000
1668620273.332,-991.699,563.965,-13.184,-428.711
1668620273.336,546.875,685.547,392.578,-898.926
1668620273.340,-970.703,-884.277,-703.613,257.324
1668620273.344,-1000.000,-1000.000,-1000.000,-1000.000
1668620273.346,177.734,-74.707,-472.656,-906.738
1668620273.350,-898.438,-881.348,405.762,706.055
1668620273.354,-319.824,-163.086,-173.828,508.301
1668620273.358,-1000.000,-1000.000,-1000.000,-990.723
1668620273.362,-217.285,-245.605,-736.328,-1000.000
1668620273.366,-834.473,-844.238,265.137,-35.156
1668620273.370,242.188,245.605,56.152,-990.234
1668620273.373,-1000.000,-1000.000,-1000.000,-402.832
1668620273.377,-396.484,-660.156,-850.098,-1000.000
1668620273.381,-857.910,975.586,132.324,-203.613
1668620273.385,239.258,355.469,196.289,-851.074
1668620273.389,-1000.000,-1000.000,-905.273,145.508
1668620273.391,-927.246,-1000.000,-959.961,-1000.000
1668620273.395,646.973,233.887,-248.535,-534.668
1668620273.399,720.703,854.492,382.812,-935.059
1668620273.403,-852.539,-683.594,-504.395,252.930
1668620273.407,-1000.000,-1000.000,-1000.000,-1000.000
1668620273.411,-73.730,-183.594,-572.754,-1000.000
1668620273.415,-849.609,-871.582,412.109,422.363
1668620273.418,-88.867,-1.465,-48.340,635.742
1668620273.422,-1000.000,-1000.000,-1000.000,-921.387
1668620273.426,-225.098,-433.594,-862.305,-1000.000
1668620273.430,-832.520,-909.180,166.504,-178.711
1668620273.434,243.164,248.535,137.695,-916.504
1668620273.437,-1000.000,-1000.000,-1000.000,-195.312
1668620273.441,-676.270,-995.605,-999.023,-1000.000
1668620273.445,987.305,545.410,23.438,-212.891
1668620273.449,405.273,531.250,312.012,-838.867
1668620273.453,-1000.000,-976.074,-847.656,243.164
1668620273.457,-1000.000,-1000.000,-1000.000,-1000.000
1668620273.461,177.734,-67.871,-353.516,-684.570
1668620273.464,948.730,968.262,547.852,969.238
1668620273.468,-565.430,-433.105,-202.148,264.648
1668620273.472,-1000.000,-1000.000,-1000.000,-1000.000
1668620273.476,-195.801,-253.906,-674.316,-1000.000
1668620273.480,-866.211,-874.023,415.039,224.121
1668620273.482,41.016,135.254,-10.742,727.539
1668620273.486,-1000.000,-1000.000,-1000.000,-836.426
1668620273.490,-445.801,-731.934,-920.898,-1000.000
1668620273.494,-907.227,872.070,102.539,-188.965
1668620273.498,255.371,281.250,178.223,-887.695
1668620273.502,-1000.000,-1000.000,-986.816,-76.660
1668620273.506,-951.172,-1000.000,-964.355,-1000.000
1668620273.509,633.301,244.141,-33.203,-333.008
1668620273.513,590.332,647.949,330.566,-870.117
1668620273.517,-949.707,-896.484,-717.285,243.652
1668620273.521,-1000.000,-1000.000,-1000.000,-1000.000
1668620273.525,-50.293,-166.504,-506.836,-904.785
1668620273.526,-975.586,-932.617,438.477,709.473
1668620273.530,-368.164,-197.266,-156.250,400.879
1668620273.534,-1000.000,-1000.000,-1000.000,-1000.000
1668620273.538,-186.523,-364.746,-768.066,-1000.000
1668620273.542,-906.250,-962.402,246.094,98.145
1668620273.546,76.172,155.762,11.719,840.820
1668620273.550,-1000.000,-1000.000,-998.047,-680.664
1668620273.553,-569.824,-883.789,-961.914,-1000.000
1668620273.557,-957.031,705.566,49.805,-195.801
1668620273.561,259.277,346.680,250.000,-871.582
1668620273.565,-1000.000,-1000.000,-908.691,34.180
1668620273.569,-1000.000,-1000.000,-1000.000,-1000.000
1668620273.571,417.969,104.980,-200.684,-506.348
1668620273.575,692.383,757.324,423.340,-937.500
1668620273.579,-888.672,-768.066,-538.086,259.766
1668620273.583,-1000.000,-1000.000,-1000.000,-1000.000
1668620273.587,-149.902,-184.570,-579.102,-1000.000
1668620273.591,-898.926,-892.090,443.359,534.180
1668620273.595,-177.734,-71.777,-76.172,509.277
1668620273.598,-1000.000,-1000.000,-1000.000,-997.070
1668620273.602,-214.355,-443.359,-812.500,-1000.000
1668620273.606,-838.379,-923.828,242.676,-46.387
1668620273.610,246.094,258.789,104.980,990.723
1668620273.614,-1000.000,-1000.000,-1000.000,-426.270
1668620273.571,417.969,104.980,-200.684,-506.348
1668620273.575,692.383,757.324,423.340,-937.500
1668620273.579,-888.672,-768.066,-538.086,259.766
1668620273.583,-1000.000,-1000.000,-1000.000,-1000.000
1668620273.587,-149.902,-184.570,-579.102,-1000.000
1668620273.591,-898.926,-892.090,443.359,534.180
1668620273.595,-177.734,-71.777,-76.172,509.277
1668620273.598,-1000.000,-1000.000,-1000.000,-997.070
1668620273.602,-214.355,-443.359,-812.500,-1000.000
1668620273.606,-838.379,-923.828,242.676,-46.387
1668620273.610,246.094,258.789,104.980,990.723
1668620273.614,-1000.000,-1000.000,-1000.000,-426.270
1668620273.632,-625.000,-939.453,-985.352,-1000.000
1668620273.636,-968.262,632.324,61.523,-203.125
1668620273.640,345.703,449.707,271.484,-854.004
1668620273.644,-1000.000,-1000.000,-907.715,145.020
1668620273.648,-1000.000,-1000.000,-1000.000,-1000.000
1668620273.652,274.414,-3.418,-257.812,-622.559
1668620273.656,830.078,885.254,445.801,-989.746
1668620273.659,-732.422,-577.637,-421.387,265.137
1668620273.663,-1000.000,-1000.000,-1000.000,-1000.000
1668620273.667,-186.523,-217.285,-520.508,-1000.000
1668620273.671,-884.277,-875.977,444.824,341.309
1668620273.675,-65.430,59.082,-66.895,638.184
1668620273.677,-1000.000,-1000.000,-1000.000,-921.875
1668620273.681,-334.473,-604.004,-887.695,-1000.000
1668620273.685,-870.117,985.352,133.789,-183.105
1668620273.689,243.652,262.207,146.484,-909.180
1668620273.693,-1000.000,-1000.000,-989.258,-168.457
1668620273.697,-901.855,-1000.000,-1000.000,-1000.000
1668620273.701,715.820,302.246,-20.020,-292.480
1668620273.704,490.234,581.543,292.969,-865.234
1668620273.708,-999.023,-938.965,-781.738,250.000
1668620273.712,-1000.000,-1000.000,-999.023,-1000.000
1668620273.716,-8.789,-151.367,-474.609,-774.414
1668620273.720,963.379,-978.027,423.340,869.141
1668620273.721,-479.980,-288.574,-245.605,283.691
1668620273.725,-1000.000,-1000.000,-1000.000,-1000.000
1668620273.729,-208.008,-414.551,-766.113,-1000.000
1668620273.733,-841.309,-921.875,299.805,215.332
1668620273.737,102.051,207.520,34.180,765.137
1668620273.741,-1000.000,-1000.000,-1000.000,-795.898
1668620273.745,-630.371,-1000.000,-913.086,-1000.000
1668620273.748,812.500,502.441,51.758,-187.988
1668620273.752,272.949,345.703,287.109,-889.648
1668620273.756,-1000.000,-1000.000,-864.746,-67.383
1668620273.760,-1000.000,-1000.000,-1000.000,-1000.000
1668620273.764,27.344,-76.172,-250.977,-417.480
1668620273.766,655.762,718.262,330.078,-906.250
1668620273.770,-854.980,-738.281,-618.164,258.789
1668620273.774,-1000.000,-1000.000,-1000.000,-1000.000
1668620273.778,-189.453,-296.875,-698.242,-902.344
1668620273.782,-895.020,-915.527,380.859,709.473
1668620273.786,-60.547,22.949,-31.738,398.926
1668620273.790,-1000.000,-1000.000,-1000.000,-1000.000
1668620273.793,-605.957,-805.664,-868.652,-1000.000
1668620273.797,990.234,771.973,195.312,83.008
1668620273.801,265.625,296.387,113.770,807.617
1668620273.805,-1000.000,-1000.000,-977.539,-715.332
1668620273.809,-1000.000,-1000.000,-1000.000,-1000.000
1668620273.810,304.688,187.012,-72.266,-195.801
1668620273.814,442.871,532.227,284.180,-873.535
1668620273.818,-1000.000,-949.219,-821.777,34.180
1668620273.822,-1000.000,-1000.000,-1000.000,-1000.000
1668620273.826,-95.703,-116.211,-459.473,-501.953
1668620273.830,773.438,868.652,333.984,998.535
1668620273.834,-681.641,-534.668,-395.996,174.805
1668620273.837,-1000.000,-1000.000,-1000.000,-1000.000
1668620273.841,-288.574,-375.000,-694.824,-1000.000
1668620273.845,-907.715,-922.363,354.980,530.762
1668620273.849,48.828,150.391,18.555,518.066
1668620273.853,-1000.000,-1000.000,-1000.000,-988.281
1668620273.855,-746.582,-916.992,-950.684,-1000.000
1668620273.859,854.492,644.531,72.754,-74.707
1668620273.863,285.156,305.176,188.477,963.379
1668620273.867,-1000.000,-1000.000,-946.289,-448.730
1668620273.871,-1000.000,-1000.000,-1000.000,-1000.000
1668620273.875,203.613,75.684,-140.137,-202.148
1668620273.879,575.684,625.488,402.832,-854.492
1668620273.882,-934.082,-881.348,-612.793,145.020
1668620273.886,-1000.000,-1000.000,-1000.000,-1000.000
1668620273.890,-151.855,-165.039,-592.285,-622.559
1668620273.894,988.770,-957.031,352.051,-989.258
1668620273.898,-345.215,-233.398,-242.188,265.137
1668620273.900,-1000.000,-1000.000,-1000.000,-1000.000
1668620273.904,-397.949,-525.879,-812.500,-1000.000
1668620273.908,-924.316,-976.562,297.852,345.215
1668620273.912,163.574,250.000,70.312,607.910
1668620273.916,-1000.000,-1000.000,-1000.000,-939.453
1668620273.920,-921.875,-1000.000,-953.125,-1000.000
1668620273.924,641.113,428.711,82.031,-174.316
1668620273.927,304.199,367.676,269.043,-940.918
1668620273.931,-1000.000,-1000.000,-903.809,-226.074
1668620273.935,-1000.000,-1000.000,-1000.000,-1000.000
1668620273.939,52.246,-71.777,-103.516,-311.523
1668620273.943,660.156,787.598,434.570,-874.512
1668620273.961,-856.934,-671.387,-592.285,253.418
1668620273.965,-1000.000,-1000.000,-1000.000,-1000.000
1668620273.969,-181.152,-207.520,-645.020,-773.926
1668620273.973,-908.203,-893.066,392.578,869.141
1668620273.977,-119.141,-22.949,-72.754,283.691
1668620273.981,-1000.000,-1000.000,-1000.000,-1000.000
1668620273.985,-506.348,-639.648,-852.051,-1000.000
1668620273.988,-955.078,954.102,223.633,200.684
1668620273.992,264.160,272.461,135.254,828.613
1668620273.996,-1000.000,-1000.000,-958.008,-727.051
1668620274.000,-1000.000,-1000.000,-992.676,-1000.000
1668620274.004,537.598,309.082,-16.113,-186.035
1668620274.007,408.691,522.949,325.195,-886.719
1668620274.011,-1000.000,-972.656,-804.688,-60.547
1668620274.015,-1000.000,-1000.000,-1000.000,-1000.000
1668620274.019,-75.684,-143.555,-343.750,-382.812
1668620274.023,844.238,951.172,420.898,-954.590
1668620274.027,-621.094,-418.457,-406.738,167.480
1668620274.031,-1000.000,-1000.000,-1000.000,-1000.000
1668620274.034,-190.918,-291.992,-685.059,-907.227
1668620274.038,-873.535,-889.160,437.012,704.102
1668620274.042,42.480,131.836,78.125,497.070
1668620274.046,-1000.000,-1000.000,-1000.000,-1000.000
1668620274.050,-609.863,-813.965,-931.152,-1000.000
1668620274.051,-994.629,787.598,176.270,79.590
1668620274.055,258.789,290.527,196.777,935.059
1668620274.059,-1000.000,-1000.000,-966.309,-554.688
1668620274.063,-1000.000,-1000.000,-1000.000,-1000.000
1668620274.067,250.488,146.484,-57.129,-194.336
1668620274.071,507.812,600.098,369.141,-868.652
1668620274.075,-974.121,-907.227,-742.188,42.480
1668620274.078,-1000.000,-1000.000,-1000.000,-1000.000
1668620274.082,-124.023,-136.230,-456.543,-521.973
1668620274.086,887.695,952.637,366.211,-944.336
1668620274.090,-528.809,-407.715,-380.371,262.695
1668620274.094,-1000.000,-1000.000,-1000.000,-1000.000
1668620274.096,-200.684,-341.309,-785.156,-1000.000
1668620274.100,-845.215,-894.043,344.238,528.809
1668620274.104,143.555,257.812,142.578,574.707
1668620274.108,-1000.000,-1000.000,-991.699,-971.191
1668620274.112,-248.535,-479.980,-792.480,-1000.000
1668620274.116,-971.680,933.594,141.113,-31.250
1668620274.120,-86.426,28.320,83.008,-920.410
1668620274.123,-1000.000,-1000.000,-817.383,-286.621
1668620274.127,-1000.000,-1000.000,-958.008,-1000.000
1668620274.131,121.094,-14.160,-98.633,-195.801
1668620274.135,834.961,958.984,474.609,-896.973
1668620274.139,-712.402,-489.258,-533.203,158.203
1668620274.142,-1000.000,-1000.000,-980.469,-1000.000
1668620274.146,-176.758,-191.895,-562.012,-600.586
1668620274.150,-901.367,-882.812,458.008,-958.008
1668620274.154,-112.793,-26.367,-115.723,333.984
1668620274.158,-1000.000,-1000.000,-1000.000,-1000.000
1668620274.162,-404.297,-512.207,-780.762,-1000.000
1668620274.166,-902.832,-947.266,324.707,404.297
1668620274.169,246.582,253.418,161.621,734.375
1668620274.173,-1000.000,-1000.000,-951.172,-839.844
1668620274.177,-993.164,-1000.000,-971.680,-1000.000
1668620274.181,570.801,409.180,68.359,-187.500
1668620274.185,399.414,472.656,374.512,-889.648
1668620274.187,-1000.000,-999.023,-791.992,-94.238
1668620274.191,-1000.000,-1000.000,-1000.000,-1000.000
1668620274.195,-46.875,-113.770,-225.098,-291.992
1668620274.199,764.160,835.449,463.379,-850.098
1668620274.203,-736.328,-610.840,-472.168,229.980
1668620274.207,-1000.000,-1000.000,-1000.000,-1000.000
1668620274.211,-86.426,-199.707,-584.473,-687.500
1668620274.214,-919.434,-932.129,489.746,864.746
1668620274.218,-115.723,-17.578,-3.418,379.395
1668620274.222,-1000.000,-1000.000,-1000.000,-1000.000
1668620274.226,-594.727,-804.688,-902.832,-1000.000
1668620274.230,994.629,765.137,164.551,184.570
1668620274.247,262.695,295.898,114.746,822.266
1668620274.251,-1000.000,-1000.000,-965.332,-724.609
1668620274.255,-1000.000,-1000.000,-1000.000,-1000.000
1668620274.259,277.344,165.039,-61.523,-186.035
1668620274.263,412.598,476.562,344.238,-887.695
1668620274.267,-1000.000,-975.586,-758.301,-61.523
1668620274.271,-1000.000,-1000.000,-986.816,-1000.000
1668620274.274,-131.836,-165.039,-362.793,-417.969
1668620274.278,883.789,-994.141,401.367,-904.785
1668620274.282,-519.531,-306.641,-357.910,254.883
1668620274.286,-1000.000,-1000.000,-1000.000,-1000.000
1668620274.290,-316.895,-460.938,-772.949,-937.012
1668620274.276,-921.875,-966.797,275.879,659.668
1668620274.280,32.715,121.582,-25.391,492.188
1668620274.284,-1000.000,-1000.000,-1000.000,-1000.000
1668620274.288,-743.164,-887.695,-952.637,-1000.000
1668620274.292,852.051,669.922,80.078,21.484
1668620274.296,288.574,307.617,219.727,923.828
1668620274.300,-1000.000,-1000.000,-872.070,-547.363
1668620274.303,-1000.000,-1000.000,-997.070,-1000.000
1668620274.307,243.164,144.531,-51.758,-193.359
1668620274.311,600.586,676.270,466.309,-868.164
1668620274.315,-928.711,-857.422,-591.309,44.434
1668620274.319,-1000.000,-1000.000,-1000.000,-1000.000
1668620274.338,-153.320,-177.246,-555.664,-521.973
1668620274.342,996.094,-923.828,428.223,-942.871
1668620274.346,-330.566,-153.320,-166.016,256.836
1668620274.350,-1000.000,-1000.000,-1000.000,-1000.000
1668620274.354,-397.461,-512.207,-800.293,-1000.000
1668620274.358,-925.781,-963.867,334.961,453.125
1668620274.362,158.203,244.141,79.102,601.074
1668620274.365,-1000.000,-1000.000,-1000.000,-939.453
1668620274.369,-881.836,-1000.000,-986.816,-1000.000
1668620274.373,699.707,477.539,76.660,-151.367
1668620274.377,301.758,354.980,278.320,998.047
1668620274.381,-1000.000,-1000.000,-901.855,-355.469
1668620274.386,-1000.000,-1000.000,-1000.000,-1000.000
1668620274.390,108.887,-44.922,-195.312,-202.148
1668620274.394,667.480,728.027,382.324,-846.191
1668620274.398,-888.184,-774.414,-568.848,127.930
1668620274.402,-1000.000,-1000.000,-1000.000,-1000.000
1668620274.406,-89.844,-127.930,-580.566,-549.805
1668620274.410,-928.711,-911.133,460.938,997.070
1668620274.413,-154.785,-36.621,-105.469,262.207
1668620274.417,-1000.000,-1000.000,-1000.000,-1000.000
1668620274.421,-484.375,-645.996,-813.477,-1000.000
1668620274.425,986.328,945.312,153.809,195.801
1668620274.429,176.270,273.926,16.113,602.539
1668620274.427,-1000.000,-1000.000,-959.473,-866.699
1668620274.431,-1000.000,-1000.000,-991.211,-1000.000
1668620274.435,535.156,309.570,-27.832,-180.176
1668620274.439,410.645,484.863,294.434,-911.621
1668620274.443,-1000.000,-989.746,-829.102,-166.992
1668620274.447,-1000.000,-1000.000,-1000.000,-1000.000
1668620274.451,-32.715,-129.395,-308.594,-312.988
1668620274.454,782.715,893.066,404.785,-872.070
1668620274.458,-700.684,-502.930,-405.762,252.930
1668620274.462,-1000.000,-1000.000,-1000.000,-1000.000
1668620274.466,-194.824,-291.992,-728.027,-783.691
1668620274.470,-874.023,-895.020,397.461,867.676
1668620274.479,42.480,110.840,-3.906,379.883
1668620274.483,-1000.000,-1000.000,-1000.000,-1000.000
1668620274.487,-609.863,-763.672,-921.387,-1000.000
1668620274.491,-997.559,841.797,144.043,146.484
1668620274.495,267.090,285.156,175.293,817.383
1668620274.499,-1000.000,-1000.000,-945.312,-721.680
1668620274.503,-1000.000,-1000.000,-1000.000,-1000.000
1668620274.506,352.051,193.359,-56.152,-193.359
1668620274.510,515.137,613.770,472.168,-875.488
1668620274.514,-985.352,-911.621,-610.352,2.441
1668620274.518,-1000.000,-1000.000,-1000.000,-1000.000
1668620274.522,-159.180,-168.945,-393.555,-424.805
1668620274.519,994.629,-953.613,488.281,-901.367
1668620274.523,-349.121,-237.305,-285.156,258.301
1668620274.527,-1000.000,-1000.000,-1000.000,-1000.000
1668620274.531,-300.293,-408.691,-748.047,-906.738
1668620274.535,-886.230,-918.457,391.602,707.031
1668620274.539,151.855,227.539,64.453,492.676
1668620274.543,-1000.000,-1000.000,-1000.000,-1000.000
1668620274.546,-759.277,-946.289,-915.039,-1000.000
1668620274.550,862.793,625.488,183.105,3.906
1668620274.554,280.273,334.473,223.633,964.844
1668620274.558,-1000.000,-1000.000,-931.152,-482.910
1668620274.562,-1000.000,-1000.000,-1000.000,-1000.000
1668620274.569,159.180,34.668,-164.062,-204.102
1668620274.573,631.348,713.867,398.438,-853.027
1668620274.577,-897.461,-791.504,-605.957,145.020
1668620274.581,-1000.000,-1000.000,-1000.000,-1000.000
1668620274.585,-180.664,-182.129,-578.125,-534.180
1668620274.589,-915.039,-901.367,448.730,-936.035
1668620274.593,-163.574,-93.262,-95.703,256.348
1668620274.596,-1000.000,-1000.000,-1000.000,-1000.000
1668620274.600,-409.668,-540.527,-824.219,-1000.000
1668620274.604,-911.621,-972.656,242.676,471.680
1668620274.608,255.371,262.207,104.004,615.234
1668620274.612,-1000.000,-1000.000,-972.168,-934.570
1668620274.606,-932.129,-1000.000,-1000.000,-1000.000
1668620274.610,659.668,422.363,4.883,-169.434
1668620274.614,356.445,452.637,324.219,-915.527
1668620274.618,-1000.000,-1000.000,-831.055,-200.684
1668620274.622,-1000.000,-1000.000,-1000.000,-1000.000
1668620274.626,2.930,-89.355,-237.305,-212.891
1668620274.630,793.945,848.145,505.371,-839.355
1668620274.633,-704.102,-590.820,-399.902,246.582
1668620274.637,-1000.000,-1000.000,-1000.000,-1000.000
1668620274.641,-183.105,-224.121,-632.812,-637.695
1668620274.645,-891.602,-882.812,454.590,-980.957
1668620274.649,-60.059,51.270,-47.363,266.602
1668620274.666,-1000.000,-1000.000,-1000.000,-1000.000
1668620274.670,-511.230,-667.969,-886.719,-1000.000
1668620274.674,-950.684,939.453,221.191,274.414
1668620274.678,259.277,273.926,129.883,811.035
1668620274.682,-1000.000,-1000.000,-1000.000,-756.836
1668620274.686,-1000.000,-1000.000,-1000.000,-1000.000
1668620274.690,478.516,284.180,-0.977,-187.500
1668620274.693,506.836,574.707,366.211,-883.789
1668620274.697,-985.352,-946.289,-789.062,-65.918
1668620274.701,-1000.000,-1000.000,-1000.000,-1000.000
1668620274.705,-124.512,-150.391,-244.629,-321.289
1668620274.709,887.695,981.445,499.512,-866.211
1668620274.711,-527.832,-358.887,-356.934,252.441
1668620274.715,-1000.000,-1000.000,-1000.000,-1000.000
1668620274.719,-192.383,-333.496,-731.934,-782.227
1668620274.723,-868.164,-897.949,400.391,870.605
1668620274.727,63.965,177.734,14.648,430.664
1668620274.731,-1000.000,-1000.000,-1000.000,-1000.000
1668620274.735,-623.047,-834.961,-935.059,-1000.000
1668620274.738,995.605,770.508,122.070,106.445
1668620274.742,261.230,293.457,177.246,939.941
1668620274.746,-1000.000,-1000.000,-930.664,-557.617
1668620274.750,-1000.000,-1000.000,-1000.000,-1000.000
1668620274.754,249.023,141.113,-87.891,-194.824
1668620274.755,601.074,654.297,419.434,-865.234
1668620274.759,-928.711,-876.465,-660.156,41.016
1668620274.763,-1000.000,-1000.000,-1000.000,-1000.000
1668620274.767,-152.344,-176.758,-496.582,-428.711
1668620274.771,999.023,-926.758,485.840,-897.461
1668620274.775,-367.676,-164.062,-150.391,251.953
1668620274.779,-1000.000,-1000.000,-1000.000,-1000.000
1668620274.782,-227.539,-463.867,-769.531,-955.078
1668620274.786,-896.484,-936.523,350.098,629.883
1668620274.790,193.848,246.094,119.141,562.012
1668620274.794,-1000.000,-1000.000,-986.328,-964.844
1668620274.798,-881.348,-1000.000,-1000.000,-1000.000
1668620274.802,716.309,538.086,51.758,-52.246
1668620274.806,299.805,363.281,258.789,-974.121
1668620274.810,-1000.000,-1000.000,-922.852,-370.117
1668620274.814,-1000.000,-1000.000,-1000.000,-1000.000
1668620274.818,129.883,-25.879,-155.762,-203.613
1668620274.822,675.293,758.789,453.613,-850.586
1668620274.826,-865.723,-724.121,-548.828,145.508
1668620274.829,-1000.000,-1000.000,-1000.000,-1000.000
1668620274.833,-178.223,-186.035,-510.254,-541.992
1668620274.837,-916.016,-889.160,516.113,-938.965
1668620274.841,-152.832,-37.598,-113.281,250.977
1668620274.845,-1000.000,-1000.000,-1000.000,-1000.000
1668620274.847,-473.145,-589.844,-850.098,-1000.000
1668620274.851,-941.406,998.047,254.395,369.629
1668620274.855,260.254,267.090,105.957,688.965
1668620274.859,-1000.000,-1000.000,-1000.000,-911.621
1668620274.863,-994.629,-1000.000,-990.723,-1000.000
1668620274.867,480.957,374.512,-19.043,-91.797
1668620274.871,324.219,499.023,254.395,-916.992
1668620274.874,-1000.000,-988.281,-800.293,-173.340
1668620274.878,-1000.000,-1000.000,-1000.000,-1000.000
1668620274.882,-7.812,-120.605,-289.062,-213.379
1668620274.886,824.219,920.898,430.176,-838.379
1668620274.890,-663.086,-475.586,-428.711,244.141
1668620274.891,-1000.000,-1000.000,-1000.000,-1000.000
1668620274.895,-192.383,-246.094,-670.410,-676.758
1668620274.899,-876.953,-879.883,433.105,984.375
1668620274.903,20.508,92.773,-16.113,343.262
1668620274.907,-1000.000,-1000.000,-1000.000,-1000.000
1668620274.911,-573.730,-719.238,-889.160,-1000.000
1668620274.915,-977.051,893.066,192.383,220.215
1668620274.918,260.254,279.785,183.105,827.148
1668620274.922,-1000.000,-1000.000,-944.336,-728.027
1668620274.926,-1000.000,-1000.000,-1000.000,-1000.000
1668620274.930,352.051,236.816,-61.523,-186.035
1668620274.934,515.137,606.934,351.074,-883.301
1668620274.937,-983.887,-921.875,-778.320,-65.918
1668620274.941,-1000.000,-1000.000,-1000.000,-1000.000
1668620274.945,-139.648,-161.133,-409.180,-321.289
1668620274.949,935.059,-978.027,471.191,-864.746
1668620274.953,-448.730,-283.691,-305.664,244.629
1668620274.957,-1000.000,-1000.000,-1000.000,-1000.000
1668620274.961,-249.023,-374.023,-713.379,-870.605
1668620274.964,-873.047,-906.738,475.586,755.859
1668620274.968,136.230,211.914,66.895,482.422
1668620274.972,-1000.000,-1000.000,-1000.000,-1000.000
1668620274.976,-748.535,-881.836,-925.293,-1000.000
1668620274.980,872.559,713.379,164.551,79.102
1668620274.982,284.180,313.477,198.730,935.059
1668620274.986,-1000.000,-1000.000,-962.402,-552.734
1668620274.990,-1000.000,-1000.000,-1000.000,-1000.000
1668620274.994,243.652,81.055,-130.859,-175.781
1668620274.998,600.586,678.711,383.789,-922.852
1668620275.002,-930.176,-837.891,-673.340,-46.387
1668620275.006,-1000.000,-1000.000,-1000.000,-1000.000
1668620275.009,-167.480,-178.711,-472.168,-467.285
1668620275.013,-964.844,-915.527,454.590,-917.969
1668620275.017,-257.324,-133.789,-156.250,251.953
1668620275.021,-1000.000,-1000.000,-1000.000,-1000.000
1668620275.025,-407.227,-507.324,-824.707,-1000.000
1668620275.028,-915.527,-957.520,291.504,526.855
1668620275.032,259.277,261.719,88.379,602.539
1668620275.036,-1000.000,-1000.000,-1000.000,-949.707
1668620275.040,-896.484,-1000.000,-999.512,-1000.000
1668620275.044,707.031,494.141,20.996,-50.293
1668620275.048,300.781,399.902,285.645,-975.098
1668620275.052,-1000.000,-1000.000,-856.445,-370.117
1668620275.055,-1000.000,-1000.000,-1000.000,-1000.000
1668620275.059,114.258,-49.805,-227.539,-207.031
1668620275.063,744.141,827.148,467.773,-849.121
1668620275.067,-792.969,-636.230,-453.125,187.988
1668620275.071,-1000.000,-1000.000,-1000.000,-1000.000
1668620275.085,-187.988,-198.242,-632.324,-611.328
1668620275.089,-891.602,-882.324,483.398,-975.098
1668620275.093,-60.547,4.395,-36.621,260.254
1668620275.097,-1000.000,-1000.000,-1000.000,-1000.000
1668620275.101,-497.559,-601.562,-842.773,-1000.000
1668620275.105,-944.336,994.629,298.828,334.473
1668620275.109,261.230,265.625,142.090,696.289
1668620275.112,-1000.000,-1000.000,-1000.000,-885.254
1668620275.116,-1000.000,-1000.000,-1000.000,-1000.000
1668620275.120,536.133,332.031,-18.555,-182.129
1668620275.124,447.266,541.016,329.590,-901.367
1668620275.128,-1000.000,-964.844,-809.570,-146.973
1668620275.130,-1000.000,-1000.000,-1000.000,-1000.000
1668620275.134,-20.508,-132.324,-291.992,-240.723
1668620275.138,888.184,936.523,447.266,-845.215
1668620275.142,-578.613,-442.871,-429.688,241.699
1668620275.146,-1000.000,-1000.000,-1000.000,-1000.000
1668620275.150,-193.359,-281.738,-661.133,-775.391
1668620275.154,-872.070,-885.742,458.496,878.418
1668620275.157,42.480,135.254,12.695,381.836
1668620275.161,-1000.000,-1000.000,-1000.000,-1000.000
1668620275.165,-609.863,-783.691,-838.379,-1000.000
1668620275.169,-997.559,823.730,233.398,208.496
1668620275.173,266.602,289.551,147.461,825.684
1668620275.176,-1000.000,-1000.000,-989.746,-728.027
1668620275.180,-1000.000,-1000.000,-1000.000,-1000.000
1668620275.184,348.633,211.914,-55.176,-191.895
1668620275.188,562.012,629.883,373.535,-877.441
1668620275.192,-960.938,-905.273,-732.422,-14.160
1668620275.196,-1000.000,-1000.000,-1000.000,-1000.000
1668620275.200,-155.273,-167.969,-435.059,-408.203
1668620275.203,993.652,-954.102,448.730,-895.996
1668620275.207,-349.121,-236.328,-231.445,255.371
1668620275.211,-1000.000,-1000.000,-1000.000,-1000.000
1668620275.215,-300.293,-417.969,-765.137,-906.738
1668620275.219,-886.230,-924.316,384.766,706.055
1668620275.220,151.855,221.191,57.129,497.070
1668620275.224,-1000.000,-1000.000,-1000.000,-1000.000
1668620275.228,-759.277,-935.547,-980.469,-1000.000
1668620275.232,862.305,638.672,80.566,98.145
1668620275.236,281.738,337.402,241.211,878.418
1668620275.240,-1000.000,-1000.000,-932.129,-643.555
1668620275.244,-1000.000,-1000.000,-1000.000,-1000.000
1668620275.247,177.246,40.527,-140.625,-201.172
1668620275.251,634.277,714.844,506.836,-862.305
1668620275.255,-899.414,-792.480,-522.461,106.934
1668620275.259,-1000.000,-1000.000,-1000.000,-1000.000
1668620275.263,-181.152,-182.617,-509.766,-529.785
1668620275.267,-915.039,-900.879,496.094,-939.941
1668620275.271,-163.574,-92.773,-130.859,261.719
1668620275.275,-1000.000,-1000.000,-1000.000,-1000.000
1668620275.279,-409.668,-531.250,-827.148,-1000.000
1668620275.283,-912.109,-967.285,286.621,526.855
1668620275.287,259.277,262.207,96.191,601.562
1668620275.291,-1000.000,-1000.000,-1000.000,-949.707
1668620275.294,-898.926,-1000.000,-964.355,-1000.000
1668620275.298,708.984,447.754,75.684,-78.613
1668620275.302,337.402,446.777,268.555,-945.801
1668620275.306,-1000.000,-1000.000,-876.953,-304.688
1668620275.310,-1000.000,-1000.000,-1000.000,-1000.000
1668620275.310,21.973,-82.520,-275.391,-210.938
1668620275.314,758.301,829.102,402.832,-844.238
1668620275.318,-747.070,-616.211,-511.230,225.586
1668620275.322,-1000.000,-1000.000,-1000.000,-1000.000
1668620275.326,-185.059,-216.797,-611.816,-634.277
1668620275.330,-891.602,-879.883,524.902,-983.398
1668620275.334,-60.059,52.734,-25.879,263.184
1668620275.337,-1000.000,-1000.000,-1000.000,-1000.000
1668620275.341,-511.230,-654.785,-833.496,-1000.000
1668620275.345,-951.172,952.637,213.379,333.496
1668620275.349,261.230,271.484,134.766,699.219
1668620275.353,-1000.000,-1000.000,-986.328,-881.836
1668620275.355,-1000.000,-1000.000,-1000.000,-1000.000
1668620275.359,501.465,289.551,-51.270,-171.875
1668620275.363,506.348,570.801,367.188,-945.312
1668620275.367,-987.305,-948.730,-774.414,-170.898
1668620275.371,-1000.000,-1000.000,-1000.000,-1000.000
1668620275.375,-107.422,-145.996,-340.820,-320.312
1668620275.379,892.090,967.773,545.898,-869.141
1668620275.382,-529.785,-385.742,-271.484,252.930
1668620275.386,-1000.000,-1000.000,-1000.000,-1000.000
1668620275.390,-190.430,-309.570,-699.219,-779.785
1668620275.394,-871.094,-891.602,465.332,872.070
1668620275.398,38.086,153.809,26.855,380.371
1668620275.400,-1000.000,-1000.000,-1000.000,-1000.000
1668620275.404,-672.852,-849.609,-941.895,-1000.000
1668620275.408,936.523,745.117,141.602,157.227
1668620275.412,273.438,296.875,186.035,859.863
1668620275.416,-1000.000,-1000.000,-962.891,-672.363
1668620275.420,-1000.000,-1000.000,-1000.000,-1000.000
1668620275.424,261.719,145.508,-22.949,-191.895
1668620275.427,527.344,613.770,407.227,-875.488
1668620275.431,-968.262,-903.320,-734.863,-1.953
1668620275.435,-1000.000,-1000.000,-1000.000,-1000.000
1668620275.439,-156.738,-175.293,-349.121,-424.316
1668620275.443,991.699,-937.500,538.086,-900.879
1668620275.446,-347.168,-190.918,-212.891,253.418
1668620275.450,-1000.000,-1000.000,-1000.000,-1000.000
1668620275.454,-355.957,-481.445,-782.715,-947.266
1668620275.458,-909.668,-951.660,343.262,644.531
1668620275.462,156.250,236.328,55.176,499.023
1668620275.466,-1000.000,-1000.000,-1000.000,-999.512
1668620275.470,-824.219,-976.074,-961.426,-1000.000
1668620275.473,775.879,577.148,59.570,-18.555
1668620275.477,291.504,360.840,273.926,985.840
1668620275.481,-1000.000,-1000.000,-875.000,-444.336
1668620275.485,-1000.000,-1000.000,-1000.000,-1000.000
1668620275.489,129.883,6.836,-200.684,-203.613
1668620275.505,675.293,753.418,421.875,-852.051
1668620275.509,-865.234,-743.164,-561.523,145.508
1668620275.513,-1000.000,-1000.000,-1000.000,-1000.000
1668620275.517,-176.758,-185.059,-554.199,-534.180
1668620275.521,-916.016,-891.602,505.371,-936.035
1668620275.525,-163.574,-49.805,-55.176,256.836
1668620275.529,-1000.000,-1000.000,-1000.000,-1000.000
1668620275.532,-410.156,-554.688,-834.473,-1000.000
1668620275.536,-910.645,-975.098,278.809,470.215
1668620275.540,252.441,263.184,161.133,655.273
1668620275.544,-1000.000,-1000.000,-975.098,-910.156
1668620275.548,-960.938,-1000.000,-1000.000,-1000.000
1668620275.550,620.117,408.691,14.160,-166.016
1668620275.554,403.320,483.398,284.668,-901.367
1668620275.558,-1000.000,-997.559,-882.812,-175.781
1668620275.562,-1000.000,-1000.000,-1000.000,-1000.000
1668620275.566,2.930,-103.027,-255.371,-213.867
1668620275.570,791.992,893.555,477.051,-838.379
1668620275.574,-704.590,-521.484,-442.871,246.582
1668620275.577,-1000.000,-1000.000,-1000.000,-1000.000
1668620275.581,-189.941,-236.816,-603.027,-638.672
1668620275.585,-880.859,-879.395,507.812,-980.469
1668620275.589,-4.395,84.473,-30.762,278.809
1668620275.593,-1000.000,-1000.000,-1000.000,-1000.000
1668620275.595,-520.020,-691.406,-871.094,-1000.000
1668620275.599,-946.777,923.828,224.121,259.766
1668620275.603,251.465,275.391,145.020,800.293
1668620275.607,-1000.000,-1000.000,-995.117,-765.137
1668620275.611,-1000.000,-1000.000,-1000.000,-1000.000
1668620275.615,375.488,251.953,-35.156,-187.988
1668620275.619,513.672,587.402,366.699,-883.789
1668620275.622,-982.910,-934.082,-757.812,-65.918
1668620275.626,-1000.000,-1000.000,-1000.000,-1000.000
1668620275.630,-124.512,-154.297,-339.355,-321.289
1668620275.634,887.207,996.582,428.711,-865.234
1668620275.638,-525.391,-327.637,-346.191,249.512
1668620275.640,-1000.000,-1000.000,-1000.000,-1000.000
1668620275.644,-186.523,-340.332,-713.379,-817.871
1668620275.648,-925.781,-960.938,364.746,743.652
1668620275.652,-13.184,97.656,-30.273,328.125
1668620275.656,-1000.000,-1000.000,-1000.000,-1000.000
1668620275.660,-745.117,-881.836,-934.082,-1000.000
1668620275.664,863.770,702.637,116.211,75.684
1668620275.667,285.645,299.316,256.348,922.363
1668620275.671,-1000.000,-1000.000,-889.648,-573.242
1668620275.675,-1000.000,-1000.000,-1000.000,-1000.000
1668620275.679,243.164,106.445,-111.816,-194.824
1668620275.683,600.586,664.551,394.043,-865.723
1668620275.686,-928.223,-857.910,-691.406,41.016
1668620275.690,-1000.000,-1000.000,-1000.000,-1000.000
1668620275.694,-150.879,-176.758,-500.488,-428.711
1668620275.698,989.746,-923.340,487.305,-896.484
1668620275.702,-347.168,-154.785,-164.551,247.070
1668620275.706,-1000.000,-1000.000,-1000.000,-1000.000
1668620275.710,-367.188,-480.957,-759.277,-997.070
1668620275.713,-904.785,-944.824,440.430,565.430
1668620275.717,230.469,252.441,123.047,565.918
1668620275.721,-1000.000,-1000.000,-1000.000,-966.309
1668620275.725,-894.043,-1000.000,-977.539,-1000.000
1668620275.729,705.566,518.066,65.918,-52.734
1668620275.731,301.270,381.348,226.562,-974.121
1668620275.735,-1000.000,-1000.000,-943.848,-369.629
1668620275.739,-1000.000,-1000.000,-1000.000,-1000.000
1668620275.743,114.746,-19.531,-206.543,-203.125
1668620275.747,740.723,830.566,431.152,-851.074
1668620275.751,-796.387,-646.484,-548.340,145.020
1668620275.755,-1000.000,-1000.000,-1000.000,-1000.000
1668620275.758,-186.523,-188.965,-556.641,-567.871
1668620275.762,-894.043,-879.883,460.449,-955.078
1668620275.766,-74.219,-0.488,-65.430,254.883
1668620275.770,-1000.000,-1000.000,-1000.000,-1000.000
1668620275.774,-458.984,-574.707,-838.379,-1000.000
1668620275.776,-926.270,-982.422,266.113,354.980
1668620275.780,257.324,265.137,114.258,694.824
1668620275.784,-1000.000,-1000.000,-1000.000,-884.766
1668620275.788,-981.934,-1000.000,-1000.000,-1000.000
1668620275.792,501.465,326.172,-54.199,-178.711
1668620275.796,333.984,442.871,270.020,-906.250
1668620275.800,-1000.000,-961.426,-790.527,-173.340
1668620275.803,-1000.000,-1000.000,-1000.000,-1000.000
1668620275.807,-12.695,-127.441,-353.027,-213.379
1668620275.811,845.215,920.410,448.242,-838.379
1668620275.815,-635.742,-470.703,-373.535,240.234
1668620275.819,-1000.000,-1000.000,-1000.000,-1000.000
1668620275.820,-194.336,-252.930,-678.711,-731.934
1668620275.824,-873.047,-878.906,482.422,925.293
1668620275.828,42.480,104.492,23.926,354.004
1668620275.832,-1000.000,-1000.000,-1000.000,-1000.000
1668620275.836,-609.863,-761.719,-907.715,-1000.000
1668620275.840,-997.559,844.727,235.352,207.031
1668620275.844,266.602,285.645,193.848,826.172
1668620275.847,-1000.000,-1000.000,-997.070,-727.051
1668620275.851,-1000.000,-1000.000,-1000.000,-1000.000
1668620275.855,352.051,208.008,-32.715,-186.035
1668620275.859,515.137,598.633,359.375,-885.742
1668620275.863,-983.887,-921.875,-786.133,-63.477
1668620275.880,-1000.000,-1000.000,-1000.000,-1000.000
1668620275.884,-139.648,-161.621,-403.809,-371.582
1668620275.888,931.641,-979.492,451.172,-885.742
1668620275.892,-446.777,-282.715,-310.547,250.488
1668620275.896,-1000.000,-1000.000,-1000.000,-1000.000
1668620275.900,-300.293,-407.227,-717.285,-907.227
1668620275.904,-889.160,-921.387,428.711,706.543
1668620275.907,151.855,218.262,66.406,482.910
1668620275.911,-1000.000,-1000.000,-1000.000,-1000.000
1668620275.915,-759.277,-925.293,-866.211,-1000.000
1668620275.919,860.840,649.902,176.270,78.613
1668620275.923,288.086,319.336,193.359,935.059
1668620275.929,-1000.000,-1000.000,-956.055,-554.688
1668620275.933,-1000.000,-1000.000,-1000.000,-1000.000
1668620275.937,183.105,36.621,-167.480,-194.336
1668620275.941,544.922,665.039,378.418,-867.676
1668620275.945,-900.391,-795.410,-615.234,42.480
1668620275.949,-1000.000,-1000.000,-1000.000,-1000.000
1668620275.953,-181.152,-183.594,-562.012,-506.348
1668620275.956,-925.293,-902.344,441.406,-936.523
1668620275.960,-182.617,-102.051,-99.609,259.766
1668620275.964,-1000.000,-1000.000,-1000.000,-1000.000
1668620275.968,-409.180,-502.930,-804.199,-1000.000
1668620275.972,-913.086,-952.148,353.027,526.855
1668620275.971,259.277,259.766,118.652,602.539
1668620275.975,-1000.000,-1000.000,-1000.000,-942.871
1668620275.979,-897.949,-1000.000,-1000.000,-1000.000
1668620275.983,707.520,483.398,50.781,3.906
1668620275.987,326.660,440.430,293.457,878.418
1668620275.991,-1000.000,-1000.000,-897.949,-647.949
1668620275.995,-1000.000,-1000.000,-1000.000,-1000.000
1668620275.998,99.609,-57.129,-210.938,-202.637
1668620276.002,813.477,855.469,528.809,-857.422
1668620276.006,-716.309,-598.145,-420.410,208.984
1668620276.010,-1000.000,-1000.000,-1000.000,-1000.000
1668620276.014,-185.059,-208.984,-620.605,-627.930
1668620276.016,-891.602,-880.371,487.793,-981.934
1668620276.020,-60.059,33.203,-59.570,262.695
1668620276.024,-1000.000,-1000.000,-1000.000,-1000.000
1668620276.028,-511.230,-625.488,-838.379,-1000.000
1668620276.032,-951.660,976.562,267.578,334.473
1668620276.036,263.672,268.066,145.996,696.777
1668620276.040,-1000.000,-1000.000,-1000.000,-884.766
1668620276.043,-1000.000,-1000.000,-982.910,-1000.000
1668620276.047,535.645,313.965,42.969,-181.152
1668620276.051,471.191,549.805,311.035,-905.762
1668620276.055,-1000.000,-959.473,-827.637,-150.879
1668620276.059,-1000.000,-1000.000,-1000.000,-1000.000
1668620276.060,-92.285,-141.113,-353.027,-291.504
1668620276.064,897.949,948.242,416.504,-864.746
1668620276.068,-532.715,-418.945,-398.438,256.348
1668620276.072,-1000.000,-1000.000,-1000.000,-1000.000
1668620276.076,-190.918,-312.012,-611.328,-724.121
1668620276.080,-871.094,-896.973,618.164,958.984
1668620276.084,42.480,136.230,13.672,372.559
1668620276.087,-1000.000,-1000.000,-1000.000,-1000.000
1668620276.091,-609.863,-817.383,-884.766,-1000.000
1668620276.095,-995.605,782.227,134.766,208.496
1668620276.099,261.719,292.480,184.570,825.684
1668620276.103,-1000.000,-1000.000,-948.730,-727.539
1668620276.106,-1000.000,-1000.000,-1000.000,-1000.000
1668620276.110,283.203,158.203,-86.426,-190.918
1668620276.114,562.500,629.395,428.223,-875.977
1668620276.118,-975.098,-918.945,-686.035,-55.664
1668620276.122,-1000.000,-1000.000,-1000.000,-1000.000
1668620276.126,-66.895,-79.590,-429.199,-332.520
1668620276.130,982.422,-964.844,529.297,-915.039
1668620276.133,-349.121,-234.863,-136.719,258.789
1668620276.137,-1000.000,-1000.000,-1000.000,-1000.000
1668620276.141,-300.293,-435.059,-769.531,-906.250
1668620276.145,-886.230,-930.176,396.484,706.543
1668620276.149,149.414,235.352,57.129,496.094
1668620276.180,-1000.000,-1000.000,-1000.000,-1000.000
1668620276.184,-788.574,-964.844,-958.496,-1000.000
1668620276.188,824.219,598.633,78.613,65.430
1668620276.192,286.133,349.609,236.328,932.129
1668620276.196,-1000.000,-1000.000,-926.758,-553.711
1668620276.200,-1000.000,-1000.000,-1000.000,-1000.000
1668620276.204,154.785,27.832,-79.102,-202.637
1668620276.207,678.711,748.047,457.520,-857.422
1668620276.211,-868.164,-757.812,-639.160,125.488
1668620276.215,-1000.000,-1000.000,-1000.000,-1000.000
1668620276.219,-177.246,-185.547,-543.945,-531.738
1668620276.223,-916.504,-892.090,441.406,-940.430
1668620276.196,-163.574,-53.711,-110.840,268.066
1668620276.200,-1000.000,-1000.000,-1000.000,-1000.000
1668620276.204,-409.668,-537.598,-781.250,-961.914
1668620276.208,-912.109,-965.820,371.582,615.723
1668620276.212,258.301,261.230,100.098,588.867
1668620276.216,-1000.000,-1000.000,-1000.000,-948.242
1668620276.220,-910.645,-1000.000,-1000.000,-1000.000
1668620276.223,697.266,432.617,9.766,-123.535
1668620276.227,396.484,476.074,287.598,-916.016
1668620276.231,-1000.000,-1000.000,-865.723,-229.492
1668620276.235,-1000.000,-1000.000,-1000.000,-1000.000
1668620276.239,27.344,-91.797,-290.527,-213.379
1668620276.256,796.387,877.930,411.133,-840.332
1668620276.260,-705.078,-547.852,-472.168,248.047
1668620276.264,-1000.000,-1000.000,-1000.000,-1000.000
1668620276.268,-165.039,-206.543,-653.809,-618.652
1668620276.272,-948.242,-936.523,423.340,962.402
1668620276.276,-147.949,-27.344,-60.059,171.387
1668620276.280,-1000.000,-1000.000,-1000.000,-1000.000
1668620276.283,-521.484,-692.383,-875.000,-1000.000
1668620276.287,-957.520,916.504,227.051,292.969
1668620276.291,254.395,276.855,206.055,715.332
1668620276.295,-1000.000,-1000.000,-948.242,-860.352
1668620276.299,-1000.000,-1000.000,-1000.000,-1000.000
1668620276.301,385.742,259.277,-34.668,-188.965
1668620276.305,505.859,562.988,346.191,-890.137
1668620276.309,-986.328,-948.242,-795.898,-87.402
1668620276.313,-1000.000,-1000.000,-1000.000,-1000.000
1668620276.317,-125.000,-146.973,-364.258,-319.824
1668620276.321,887.207,967.773,474.609,-866.699
1668620276.325,-526.367,-379.883,-354.004,250.488
1668620276.328,-1000.000,-1000.000,-1000.000,-1000.000
1668620276.332,-203.613,-356.934,-650.879,-802.734
1668620276.336,-875.488,-910.156,479.980,842.773
1668620276.340,38.086,158.203,8.789,381.348
1668620276.344,-1000.000,-1000.000,-1000.000,-1000.000
1668620276.362,-713.379,-862.305,-916.992,-1000.000
1668620276.366,885.254,721.191,129.883,102.051
1668620276.370,305.176,313.477,209.473,874.023
1668620276.374,-1000.000,-1000.000,-1000.000,-724.609
1668620276.378,-976.562,-1000.000,-903.809,-1000.000
1668620276.382,464.844,237.793,121.094,81.055
1668620276.386,491.211,537.598,345.215,-888.672
1668620276.389,-923.340,-870.117,-668.945,35.156
1668620276.393,-1000.000,-1000.000,-1000.000,-1000.000
1668620276.397,-152.832,-175.293,-528.809,-428.711
1668620276.401,991.211,-935.059,423.828,-897.461
1668620276.405,-348.633,-184.082,-189.453,250.488
1668620276.401,-1000.000,-1000.000,-1000.000,-1000.000
1668620276.405,-329.590,-464.844,-791.504,-966.797
1668620276.409,-892.578,-938.477,336.914,613.281
1668620276.413,190.430,248.047,101.074,523.438
1668620276.417,-1000.000,-1000.000,-982.910,-985.840
1668620276.421,-883.789,-1000.000,-976.562,-1000.000
1668620276.425,711.426,541.504,39.551,-50.781
1668620276.428,300.781,371.094,315.430,-989.258
1668620276.432,-1000.000,-1000.000,-827.637,-393.066
1668620276.436,-1000.000,-1000.000,-1000.000,-1000.000
1668620276.440,129.883,-0.488,-220.703,-184.570
1668620276.444,675.293,743.652,360.840,-907.227
1668620276.440,-866.211,-764.648,-621.582,57.129
1668620276.444,-1000.000,-1000.000,-1000.000,-1000.000
1668620276.448,-181.641,-187.012,-612.305,-534.668
1668620276.452,-907.715,-888.184,451.660,-937.012
1668620276.456,-126.953,-26.855,-82.031,251.953
1668620276.460,-1000.000,-1000.000,-1000.000,-1000.000
1668620276.464,-445.312,-570.801,-823.730,-1000.000
1668620276.467,-924.316,-982.422,346.680,403.809
1668620276.471,252.441,262.695,155.762,661.621
1668620276.475,-1000.000,-1000.000,-1000.000,-905.762
1668620276.479,-1000.000,-1000.000,-987.793,-1000.000
1668620276.483,537.109,370.605,46.387,-181.152
1668620276.495,412.598,502.441,294.922,-905.273
1668620276.499,-1000.000,-985.352,-857.422,-171.387
1668620276.503,-1000.000,-1000.000,-1000.000,-1000.000
1668620276.507,21.484,-118.652,-292.480,-194.824
1668620276.511,735.840,905.273,415.039,-894.531
1668620276.515,-792.969,-495.117,-481.934,153.320
1668620276.519,-1000.000,-1000.000,-1000.000,-1000.000
1668620276.522,-190.430,-251.465,-623.535,-708.496
1668620276.526,-884.766,-883.301,437.012,942.871
1668620276.530,-1.465,83.984,-7.324,295.410
1668620276.534,-1000.000,-1000.000,-1000.000,-1000.000
1668620276.538,-605.469,-745.605,-897.461,-1000.000
1668620276.525,-1000.000,859.375,194.336,207.031
1668620276.529,267.578,283.691,158.691,807.617
1668620276.533,-1000.000,-1000.000,-975.098,-748.535
1668620276.537,-1000.000,-1000.000,-1000.000,-1000.000
1668620276.541,352.051,217.773,-60.059,-187.012
1668620276.545,515.137,594.727,381.836,-884.766
1668620276.549,-982.422,-925.293,-725.586,-64.941
1668620276.552,-1000.000,-1000.000,-1000.000,-1000.000
1668620276.556,-125.977,-157.227,-417.480,-346.191
1668620276.560,889.648,-994.141,476.074,-875.000
1668620276.564,-514.160,-309.570,-248.047,245.605
1668620276.568,-1000.000,-1000.000,-1000.000,-1000.000
1668620276.570,-276.367,-386.719,-753.418,-906.738
1668620276.574,-885.742,-913.574,427.246,708.008
1668620276.578,129.395,210.449,110.352,456.055
1668620276.582,-1000.000,-1000.000,-1000.000,-1000.000
1668620276.586,-757.324,-905.273,-960.938,-1000.000
1668620276.590,859.863,677.734,164.551,76.172
1668620276.594,286.621,312.988,238.770,936.035
1668620276.597,-1000.000,-1000.000,-954.590,-554.688
1668620276.601,-1000.000,-1000.000,-1000.000,-1000.000
1668620276.605,243.164,85.938,-102.051,-194.336
1668620276.609,600.586,702.637,396.484,-866.699
1668620276.613,-931.152,-817.383,-681.641,41.992
1668620276.630,-1000.000,-1000.000,-1000.000,-1000.000
1668620276.634,-176.758,-181.641,-538.574,-479.492
1668620276.638,-935.059,-902.832,446.777,-922.363
1668620276.642,-235.352,-139.160,-177.734,254.395
1668620276.646,-1000.000,-1000.000,-1000.000,-1000.000
1668620276.650,-306.641,-406.250,-773.926,-1000.000
1668620276.654,-918.945,-959.961,346.680,527.344
1668620276.657,257.324,259.766,89.844,602.539
1668620276.661,-1000.000,-1000.000,-1000.000,-949.707
1668620276.665,-896.484,-1000.000,-984.375,-1000.000
1668620276.669,707.031,502.930,34.180,-49.805
1668620276.673,300.781,427.734,264.160,-974.609
1668620276.676,-1000.000,-1000.000,-878.418,-370.117
1668620276.680,-1000.000,-1000.000,-1000.000,-1000.000
1668620276.684,109.863,-52.734,-248.535,-204.102
1668620276.688,762.207,829.590,399.902,-851.074
1668620276.692,-773.438,-630.859,-538.086,152.832
1668620276.696,-1000.000,-1000.000,-1000.000,-1000.000
1668620276.700,-187.500,-193.848,-616.211,-598.633
1668620276.703,-892.090,-879.395,446.289,-972.656
1668620276.707,-60.059,8.301,-36.621,259.766
1668620276.711,-1000.000,-1000.000,-1000.000,-1000.000
1668620276.715,-511.230,-628.418,-878.418,-1000.000
1668620276.719,-951.660,969.727,233.887,334.473
1668620276.721,263.672,270.020,149.902,696.777
1668620276.725,-1000.000,-1000.000,-985.840,-877.930
1668620276.729,-1000.000,-1000.000,-1000.000,-1000.000
1668620276.733,537.109,320.312,-10.254,-124.512
1668620276.737,424.316,532.715,334.961,944.824
1668620276.741,-1000.000,-967.773,-834.473,-448.242
1668620276.745,-1000.000,-1000.000,-1000.000,-1000.000
1668620276.748,-62.500,-138.672,-332.520,-257.812
1668620276.752,882.324,935.547,531.250,-865.234
1668620276.756,-568.359,-439.453,-300.293,245.117
1668620276.760,-1000.000,-1000.000,-1000.000,-1000.000
1668620276.764,-191.895,-295.410,-679.199,-780.762
1668620276.765,-871.582,-892.578,457.520,871.094
1668620276.769,42.480,122.070,-7.812,374.512
1668620276.773,-1000.000,-1000.000,-1000.000,-1000.000
1668620276.777,-609.863,-799.805,-904.785,-1000.000
1668620276.781,-996.582,801.270,157.227,208.008
1668620276.785,264.648,290.527,175.293,826.172
1668620276.789,-1000.000,-1000.000,-965.820,-727.051
1668620276.792,-1000.000,-1000.000,-1000.000,-1000.000
1668620276.796,321.777,174.805,-39.551,-186.035
1668620276.800,542.480,620.117,356.934,-887.695
1668620276.804,-967.773,-904.785,-740.723,-61.523
1668620276.808,-1000.000,-1000.000,-1000.000,-1000.000
1668620276.810,-155.762,-167.969,-461.914,-417.480
1668620276.814,992.188,-955.078,412.109,-905.762
1668620276.818,-352.539,-237.793,-282.715,258.789
1668620276.822,-1000.000,-1000.000,-1000.000,-1000.000
1668620276.826,-300.293,-423.828,-756.348,-906.738
1668620276.830,-886.719,-925.781,402.832,706.055
1668620276.834,151.855,230.957,71.289,497.070
1668620276.837,-1000.000,-1000.000,-1000.000,-1000.000
1668620276.841,-759.277,-942.871,-959.473,-1000.000
1668620276.845,861.816,630.859,64.941,79.590
1668620276.849,282.715,344.238,240.234,934.570
1668620276.853,-1000.000,-1000.000,-911.621,-555.176
1668620276.855,-1000.000,-1000.000,-1000.000,-1000.000
1668620276.859,189.941,45.410,-204.590,-199.219
1668620276.863,668.457,732.422,401.367,-861.816
1668620276.867,-880.859,-777.832,-599.609,90.820
1668620276.871,-1000.000,-1000.000,-1000.000,-1000.000
1668620276.875,-178.711,-184.570,-574.219,-527.832
1668620276.879,-916.016,-895.996,515.137,-941.406
1668620276.882,-163.574,-71.777,-43.945,261.719
1668620276.886,-1000.000,-1000.000,-1000.000,-1000.000
1668620276.890,-409.668,-526.367,-819.824,-1000.000
1668620276.894,-912.109,-961.914,319.336,526.855
1668620276.898,259.277,260.254,102.051,601.562
1668620276.900,-1000.000,-1000.000,-1000.000,-949.219
1668620276.904,-901.367,-1000.000,-1000.000,-1000.000
1668620276.908,709.473,441.895,30.273,-67.871
1668620276.912,373.535,461.426,280.273,-960.938
1668620276.916,-1000.000,-1000.000,-879.395,-336.426
1668620276.920,-1000.000,-1000.000,-1000.000,-1000.000
1668620276.924,40.039,-84.473,-166.016,-210.449
1668620276.927,800.293,860.352,476.562,-845.215
1668620276.931,-708.496,-575.684,-537.598,228.516
1668620276.935,-1000.000,-1000.000,-1000.000,-1000.000
1668620276.939,-183.594,-226.562,-620.605,-634.766
1668620276.943,-891.602,-887.695,411.621,-982.910
1668620276.945,-60.059,27.832,-66.406,263.184
1668620276.949,-1000.000,-1000.000,-1000.000,-1000.000
1668620276.953,-511.230,-654.785,-863.770,-1000.000
1668620276.957,-948.242,948.242,239.746,334.473
1668620276.961,251.465,270.020,138.184,696.777
1668620276.965,-1000.000,-1000.000,-960.938,-885.742
1668620276.969,-1000.000,-1000.000,-991.699,-1000.000
1668620276.972,378.418,252.930,-47.363,-187.012
1668620276.976,512.695,563.477,325.195,-895.996
1668620276.980,-983.398,-946.777,-796.875,-107.910
1668620276.984,-1000.000,-1000.000,-1000.000,-1000.000
1668620276.988,-124.512,-140.625,-374.512,-317.871
1668620277.005,887.695,951.172,432.617,-868.652
1668620277.009,-525.879,-413.086,-367.676,254.395
1668620277.013,-1000.000,-1000.000,-1000.000,-1000.000
1668620277.017,-171.387,-323.730,-709.473,-761.230
1668620277.021,-927.246,-896.973,395.996,815.918
1668620277.025,-51.758,161.621,-4.883,291.016
1668620277.029,-1000.000,-1000.000,-1000.000,-1000.000
1668620277.032,-698.730,-863.281,-927.734,-1000.000
1668620277.036,906.250,727.051,130.859,142.578
1668620277.040,278.809,299.316,293.945,839.355
1668620277.044,-1000.000,-1000.000,-865.234,-694.824
1668620277.048,-1000.000,-1000.000,-1000.000,-1000.000
1668620277.050,262.207,148.926,-68.359,-193.848,0
1668620277.054,588.867,639.648,377.930,-873.535,0
1668620277.058,-936.523,-890.137,-730.957,9.277,0
1668620277.062,-1000.000,-1000.000,-1000.000,-1000.000,0
1668620277.066,-151.855,-178.223,-466.797,-425.293,0
1668620277.070,992.676,-924.805,507.812,-901.367,0
1668620277.074,-349.609,-160.156,-176.758,257.812,0
1668620277.077,-1000.000,-1000.000,-1000.000,-1000.000,0
1668620277.081,-303.711,-458.984,-735.840,-906.738,0
1668620277.085,-883.301,-935.547,438.965,707.031,0
1668620277.089,184.570,249.512,46.875,493.164,0
1668620277.093,-1000.000,-1000.000,-1000.000,-1000.000,0
1668620277.095,-803.711,-967.285,-957.031,-1000.000,0
1668620277.099,814.941,600.098,73.242,-2.441,0
1668620277.103,285.645,368.652,257.812,991.699,0
1668620277.107,-1000.000,-1000.000,-921.875,-440.430,0
1668620277.111,-1000.000,-1000.000,-1000.000,-1000.000,0
1668620277.115,129.883,18.555,-154.785,-185.547,0
1668620277.119,675.293,746.094,411.621,-908.203,0
1668620277.122,-865.234,-769.531,-599.609,57.129,0
1668620277.126,-1000.000,-1000.000,-1000.000,-1000.000,0
1668620277.130,-176.758,-184.570,-537.598,-534.668,0
1668620277.134,-916.016,-892.090,430.664,-938.477,0
1668620277.138,-163.574,-46.875,-102.539,257.324,0
1668620277.140,-1000.000,-1000.000,-1000.000,-1000.000,0
1668620277.144,-409.668,-550.781,-839.844,-1000.000,0
1668620277.148,-909.180,-971.680,289.062,480.469,0
1668620277.152,246.094,259.277,132.324,619.629,0
1668620277.156,-1000.000,-1000.000,-996.582,-931.152,0
1668620277.160,-1000.000,-1000.000,-992.188,-1000.000,0
1668620277.164,537.109,369.141,-11.230,-184.570,0
1668620277.167,412.598,500.488,395.020,-905.273,0
1668620277.171,-1000.000,-985.840,-720.215,-173.828,0
1668620277.175,-1000.000,-1000.000,-1000.000,-1000.000,0
1668620277.179,2.930,-108.887,-292.969,-213.379,0
1668620277.183,791.992,882.324,415.039,-838.379,0
1668620277.204,-704.102,-531.250,-487.793,246.094,0
1668620277.208,-1000.000,-1000.000,-1000.000,-1000.000,0
1668620277.212,-186.523,-246.094,-662.109,-644.531,0
1668620277.216,-887.207,-884.277,465.332,-987.305,0
1668620277.220,-29.297,74.707,-12.207,257.812,0
1668620277.224,-1000.000,-1000.000,-1000.000,-1000.000,0
1668620277.228,-583.008,-730.469,-878.418,-1000.000,0
1668620277.231,-989.746,875.488,276.367,236.816,0
1668620277.235,263.672,282.227,206.055,752.441,0
1668620277.239,-1000.000,-1000.000,-981.445,-812.500,0
1668620277.243,-1000.000,-1000.000,-997.070,-1000.000,0
1668620277.247,352.051,230.469,-17.578,-189.941,0
1668620277.230,515.137,580.566,350.098,-883.789,0
1668620277.234,-982.422,-935.059,-764.648,-65.430,0
1668620277.238,-1000.000,-1000.000,-1000.000,-1000.000,0
1668620277.242,-124.512,-157.715,-416.992,-321.289,0
1668620277.246,885.742,-994.629,427.734,-864.746,0
1668620277.250,-525.879,-312.988,-311.035,246.094,0
1668620277.254,-1000.000,-1000.000,-1000.000,-1000.000,0
1668620277.257,-237.305,-369.141,-735.840,-854.004,0
1668620277.261,-875.000,-907.227,406.738,776.855,0
1668620277.265,112.793,200.684,39.062,408.203,0
1668620277.269,-1000.000,-1000.000,-1000.000,-1000.000,0
1668620277.273,-747.070,-880.371,-899.414,-1000.000,0
1668620277.276,869.629,710.938,136.230,78.125,0
1668620277.280,284.668,307.129,210.938,918.945,0
1668620277.284,-1000.000,-1000.000,-950.195,-578.125,0
1668620277.288,-1000.000,-1000.000,-1000.000,-1000.000,0
1668620277.292,243.164,104.492,-107.422,-194.824,0
1668620277.296,600.586,704.590,431.641,-865.234,0
1668620277.300,-931.152,-821.289,-624.512,41.016,0
1668620277.303,-1000.000,-1000.000,-1000.000,-1000.000,0
1668620277.307,-175.293,-179.688,-553.223,-428.711,0
1668620277.311,-939.941,-910.645,462.891,-896.484,0
1668620277.315,-216.309,-122.559,-142.578,251.953,0
1668620277.319,-1000.000,-1000.000,-1000.000,-1000.000,0
1668620277.320,-338.379,-457.031,-771.484,-956.543,0
1668620277.324,-948.242,-995.117,244.629,465.332,0
1668620277.328,162.109,170.410,-53.711,396.484,0
1668620277.332,-1000.000,-1000.000,-1000.000,-942.383,0
1668620277.336,-897.949,-1000.000,-993.164,-1000.000,0
1668620277.340,705.078,534.668,86.426,-57.617,0
1668620277.344,300.781,414.551,302.734,-974.609,0
1668620277.347,-1000.000,-1000.000,-906.250,-370.117,0
1668620277.351,-1000.000,-1000.000,-1000.000,-1000.000,0
1668620277.355,117.188,-36.133,-173.340,-203.125,0
1668620277.359,729.492,821.777,429.688,-851.074,0
1668620277.363,-808.594,-647.461,-577.148,145.020,0
1668620277.380,-1000.000,-1000.000,-1000.000,-1000.000,0
1668620277.384,-190.430,-190.430,-616.211,-573.730,0
1668620277.388,-885.254,-874.023,448.242,-958.496,0
1668620277.392,-78.613,-14.160,-74.707,254.883,0
1668620277.396,-1000.000,-1000.000,-1000.000,-1000.000,0
1668620277.400,-422.852,-547.363,-830.078,-1000.000,0
1668620277.404,-962.402,972.168,286.621,334.961,0
1668620277.407,264.160,268.555,142.090,691.406,0
1668620277.411,-1000.000,-1000.000,-982.422,-887.695,0
1668620277.415,-1000.000,-1000.000,-938.965,-1000.000,0
1668620277.419,537.109,336.914,44.922,-179.199,90
1668620277.423,412.109,519.531,303.711,-907.227,0
1668620277.441,-1000.000,-974.609,-821.289,-172.363,0
1668620277.445,-1000.000,-1000.000,-1000.000,-1000.000,0
1668620277.449,-22.461,-135.742,-333.496,-234.375,0
1668620277.453,850.098,921.875,413.086,-845.215,0
1668620277.457,-625.488,-460.449,-434.082,240.723,0
1668620277.461,-1000.000,-1000.000,-1000.000,-1000.000,0
1668620277.465,-192.871,-288.574,-689.453,-776.855,0
1668620277.468,-874.512,-892.578,422.852,873.535,0
1668620277.472,33.203,106.934,33.691,348.145,0
1668620277.476,-1000.000,-1000.000,-1000.000,-1000.000,0
1668620277.480,-608.887,-777.832,-923.828,-1000.000,0
1668620277.484,-998.047,823.730,171.387,206.055,0
1668620277.474,267.090,288.574,185.547,826.660,0
1668620277.478,-1000.000,-1000.000,-962.402,-727.051,0
1668620277.482,-1000.000,-1000.000,-1000.000,-1000.000,0
1668620277.486,352.051,194.336,-66.406,-186.035,0
1668620277.490,515.137,611.816,379.883,-886.230,0
1668620277.494,-984.863,-912.598,-736.816,-62.988,0
1668620277.498,-1000.000,-1000.000,-1000.000,-1000.000,0
1668620277.501,-154.297,-166.992,-430.664,-385.254,0
1668620277.505,979.492,-959.473,439.941,-891.602,0
1668620277.509,-372.559,-248.047,-296.875,252.930,0
1668620277.513,-1000.000,-1000.000,-1000.000,-1000.000,0
1668620277.517,-300.293,-399.902,-731.445,-907.227,0
1668620277.517,-887.207,-915.039,479.004,706.055,0
1668620277.521,151.855,227.051,68.359,497.070,0
1668620277.525,-1000.000,-1000.000,-1000.000,-1000.000,0
1668620277.529,-759.277,-921.875,-950.684,-1000.000,0
1668620277.533,861.328,661.133,110.352,79.590,0
1668620277.537,286.133,338.379,240.234,934.570,0
1668620277.541,-1000.000,-1000.000,-941.895,-555.176,0
1668620277.544,-1000.000,-1000.000,-1000.000,-1000.000,0
1668620277.548,234.863,69.336,-91.797,-197.754,0
1668620277.552,669.922,735.352,383.789,-863.770,0
1668620277.556,-888.184,-782.715,-643.066,74.219,0
1668620277.560,-1000.000,-1000.000,-1000.000,-1000.000,0
1668620277.560,-179.688,-183.594,-545.410,-520.020,0
1668620277.564,-916.016,-898.438,455.566,-939.453,0
1668620277.568,-163.574,-84.473,-157.715,261.230,0
1668620277.572,-1000.000,-1000.000,-1000.000,-1000.000,0
1668620277.576,-409.668,-513.184,-815.918,-1000.000,0
1668620277.580,-912.109,-956.055,321.289,526.855,0
1668620277.584,259.277,259.766,104.492,602.539,0
1668620277.587,-1000.000,-1000.000,-999.023,-949.707,0
1668620277.591,-898.438,-1000.000,-991.699,-1000.000,0
1668620277.595,708.496,463.867,13.672,-50.293,0
1668620277.599,331.055,442.871,297.852,-975.098,0
1668620277.603,-1000.000,-1000.000,-835.449,-370.117,0
1668620277.605,-1000.000,-1000.000,-1000.000,-1000.000,0
1668620277.609,50.781,-78.125,-278.809,-208.008,0
1668620277.613,787.109,842.285,443.848,-848.145,0
1668620277.617,-727.539,-602.539,-474.609,202.148,0
1668620277.621,-1000.000,-1000.000,-1000.000,-1000.000,0
1668620277.625,-184.570,-217.285,-636.719,-630.859,0
1668620277.629,-891.602,-885.254,500.488,-985.352,0
1668620277.632,-60.059,23.926,1.465,263.672,0
1668620277.636,-1000.000,-1000.000,-1000.000,-1000.000,0
1668620277.640,-511.230,-662.598,-873.047,-1000.000,0
1668620277.644,-950.684,939.941,247.070,334.473,0
1668620277.648,258.301,273.438,135.254,696.289,0
1668620277.650,-1000.000,-1000.000,-993.164,-884.766,0
1668620277.654,-1000.000,-1000.000,-1000.000,-1000.000,0
1668620277.658,466.309,280.762,-22.461,-179.688,0
1668620277.662,458.008,545.898,339.355,-909.180,0
1668620277.666,-1000.000,-958.984,-798.828,-158.691,0
1668620277.670,-1000.000,-1000.000,-1000.000,-1000.000,0
1668620277.674,-128.418,-141.602,-272.461,-313.477,0
1668620277.677,889.160,949.219,492.676,-871.582,0
1668620277.681,-527.344,-416.504,-393.066,253.418,0
1668620277.685,-1000.000,-1000.000,-1000.000,-1000.000,0
1668620277.689,-189.941,-326.172,-649.414,-779.785,0
1668620277.693,-871.094,-900.391,426.270,871.582,0
1668620277.695,42.480,152.832,-7.324,381.836,0
1668620277.699,-1000.000,-1000.000,-1000.000,-1000.000,0
1668620277.703,-609.863,-816.895,-921.387,-1000.000,0
1668620277.707,-995.605,786.133,146.973,183.594,0
1668620277.711,262.207,291.992,175.781,822.266,0
1668620277.715,-1000.000,-1000.000,-934.570,-725.586,0
1668620277.719,-1000.000,-1000.000,-1000.000,-1000.000,0
1668620277.722,284.180,161.133,-80.078,-193.848,0
1668620277.726,599.609,644.043,389.648,-875.488,0
1668620277.730,-934.082,-889.648,-704.590,2.930,0
1668620277.734,-1000.000,-1000.000,-1000.000,-1000.000,0
1668620277.738,-151.367,-173.340,-504.395,-424.805,0
1668620277.756,992.676,-936.035,437.500,-901.367,0
1668620277.760,-349.121,-190.430,-237.305,257.812,0
1668620277.764,-1000.000,-1000.000,-1000.000,-1000.000,0
1668620277.768,-300.781,-438.965,-781.738,-906.250,0
1668620277.772,-885.742,-928.223,371.582,707.031,0
1668620277.776,153.809,242.188,90.820,493.164,0
1668620277.780,-1000.000,-1000.000,-1000.000,-1000.000,0
1668620277.783,-774.902,-961.426,-969.238,-1000.000,0
1668620277.787,842.773,608.398,57.129,4.883,0
1668620277.791,282.715,360.840,335.449,971.680,0
1668620277.795,-1000.000,-1000.000,-818.359,-473.633,0
1668620277.799,-1000.000,-1000.000,-1000.000,-1000.000,0
1668620277.800,143.555,18.066,-172.363,-204.102,0
1668620277.804,677.246,762.695,411.621,-853.027,0
1668620277.808,-866.699,-736.816,-612.305,144.531,0
1668620277.812,-1000.000,-1000.000,-1000.000,-1000.000,0
1668620277.816,-176.758,-185.547,-577.637,-534.668,0
1668620277.820,-916.016,-891.113,472.168,-936.035,0
1668620277.824,-163.574,-47.852,-92.285,257.324,0
1668620277.827,-1000.000,-1000.000,-1000.000,-1000.000,0
1668620277.831,-409.668,-550.293,-771.973,-1000.000,0
1668620277.835,-910.156,-972.168,400.391,480.957,0
1668620277.839,250.488,261.230,102.051,599.609,0
1668620277.843,-1000.000,-1000.000,-1000.000,-942.383,0
1668620277.847,-979.004,-1000.000,-995.117,-1000.000,0
1668620277.851,592.285,396.973,0.488,-174.316,0
1668620277.855,406.250,474.609,291.504,-937.988,0
1668620277.859,-1000.000,-1000.000,-855.957,-234.375,0
1668620277.863,-1000.000,-1000.000,-1000.000,-1000.000,0
1668620277.867,2.930,-104.004,-247.070,-193.359,0
1668620277.871,791.992,873.535,434.082,-896.973,0
1668620277.874,-703.613,-546.387,-493.652,157.715,0
1668620277.878,-1000.000,-1000.000,-1000.000,-1000.000,0
1668620277.882,-183.594,-240.723,-615.723,-648.438,0
1668620277.886,-892.090,-884.277,420.898,-994.141,0
1668620277.890,-56.152,65.918,-18.555,258.301,0
1668620277.890,-1000.000,-1000.000,-1000.000,-1000.000,0
1668620277.894,-553.711,-711.914,-899.414,-1000.000,0
1668620277.898,-974.609,896.484,199.219,241.699,0
1668620277.902,258.301,279.785,158.203,724.609,0
1668620277.906,-1000.000,-1000.000,-976.074,-842.773,0
1668620277.910,-1000.000,-1000.000,-1000.000,-1000.000,0
1668620277.914,352.051,242.188,-56.641,-189.941,0
1668620277.917,515.137,575.684,435.059,-885.742,0
1668620277.921,-982.422,-939.453,-659.668,-71.777,0
1668620277.925,-1000.000,-1000.000,-1000.000,-1000.000,0
1668620277.929,-124.512,-153.320,-405.273,-320.801,0
1668620277.933,887.695,991.699,422.852,-865.234,0
1668620277.935,-527.832,-338.867,-364.746,247.070,0
1668620277.939,-1000.000,-1000.000,-1000.000,-1000.000,0
1668620277.943,-194.824,-353.027,-730.957,-843.750,0
1668620277.947,-865.234,-902.832,411.133,790.039,0
1668620277.951,78.125,188.477,27.344,388.672,0
1668620277.955,-1000.000,-1000.000,-1000.000,-1000.000,0
1668620277.959,-723.633,-871.094,-926.270,-1000.000,0
1668620277.962,890.625,721.191,197.754,82.031,0
1668620277.966,280.762,298.340,222.656,899.902,0
1668620277.970,-1000.000,-1000.000,-974.609,-603.516,0
1668620277.974,-1000.000,-1000.000,-1000.000,-1000.000,0
1668620277.978,243.652,114.258,-63.965,-195.312,0
1668620277.995,600.586,684.570,388.672,-865.723,0
1668620277.999,-929.199,-841.797,-691.406,41.016,0
1668620278.003,-1000.000,-1000.000,-1000.000,-1000.000,0
1668620278.007,-158.691,-177.246,-527.344,-428.711,0
1668620278.011,-985.352,-918.945,430.176,-896.484,0
1668620278.015,-305.176,-145.508,-199.707,247.070,0
1668620278.019,-1000.000,-1000.000,-1000.000,-1000.000,0
1668620278.022,-338.867,-471.191,-755.371,-998.047,0
1668620278.026,-889.648,-938.477,311.523,563.477,0
1668620278.030,234.863,257.324,63.965,557.129,0
1668620278.034,-1000.000,-1000.000,-1000.000,-971.680,0
1668620278.038,-887.207,-1000.000,-990.723,-1000.000,0
1668620278.025,717.773,542.480,39.551,-53.711,0
1668620278.029,299.316,395.996,269.043,-974.121,0
1668620278.033,-1000.000,-1000.000,-884.277,-370.117,0
1668620278.037,-1000.000,-1000.000,-1000.000,-1000.000,0
1668620278.041,129.883,-29.785,-217.285,-203.125,0
1668620278.045,675.293,798.340,416.504,-851.562,0
1668620278.049,-866.699,-676.758,-542.969,145.508,0
1668620278.052,-1000.000,-1000.000,-1000.000,-1000.000,0
1668620278.056,-185.059,-187.012,-622.559,-588.379,0
1668620278.060,-903.809,-884.766,456.543,-967.773,0
1668620278.064,-104.492,-20.996,-12.695,257.812,0
1668620278.068,-1000.000,-1000.000,-1000.000,-1000.000,0
1668620278.071,-490.723,-601.562,-871.582,-1000.000,0
1668620278.075,-945.312,990.234,262.207,334.961,0
1668620278.079,260.742,266.602,131.836,685.547,0
1668620278.083,-1000.000,-1000.000,-1000.000,-914.551,0
1668620278.087,-1000.000,-1000.000,-964.844,-1000.000,0
1668620278.091,537.109,340.332,105.469,-91.797,0
1668620278.095,412.598,505.859,329.102,-917.969,0
1668620278.098,-1000.000,-981.934,-840.332,-171.875,0
1668620278.102,-1000.000,-1000.000,-1000.000,-1000.000,0
1668620278.106,0.000,-126.953,-273.926,-236.328,0
1668620278.110,803.223,909.668,450.195,-845.703,0
1668620278.114,-690.430,-483.398,-443.359,241.211,0
1668620278.130,-1000.000,-1000.000,-1000.000,-1000.000,0
1668620278.134,-192.383,-272.461,-683.105,-775.391,0
1668620278.138,-877.930,-889.160,421.875,874.023,0
1668620278.142,20.020,94.238,-17.578,331.055,0
1668620278.146,-1000.000,-1000.000,-1000.000,-1000.000,0
1668620278.150,-607.910,-777.832,-896.484,-1000.000,0
1668620278.154,-999.023,821.289,185.547,204.590,0
1668620278.157,267.090,290.527,153.809,826.172,0
1668620278.161,-1000.000,-1000.000,-963.379,-728.027,0
1668620278.165,-1000.000,-1000.000,-988.770,-1000.000,0
1668620278.169,352.051,219.238,-50.293,-186.035,0
1668620278.173,515.137,614.258,355.469,-886.230,0
1668620278.179,-984.863,-915.039,-733.887,-62.988,0
1668620278.183,-1000.000,-1000.000,-1000.000,-1000.000,0
1668620278.187,-152.344,-165.527,-437.500,-388.672,0
1668620278.191,973.633,-964.355,416.992,-893.066,0
1668620278.195,-383.301,-256.836,-316.406,253.418,0
1668620278.199,-1000.000,-1000.000,-1000.000,-1000.000,0
1668620278.203,-287.598,-395.508,-742.188,-906.738,0
1668620278.206,-883.301,-914.551,376.953,706.543,0
1668620278.210,149.902,220.215,63.477,484.863,0
1668620278.214,-1000.000,-1000.000,-1000.000,-1000.000,0
1668620278.218,-759.277,-903.320,-969.727,-1000.000,0
1668620278.222,860.840,684.570,90.332,78.613,0
1668620278.220,286.133,326.660,233.398,935.059,0
1668620278.224,-1000.000,-1000.000,-941.895,-554.688,0
1668620278.228,-1000.000,-1000.000,-1000.000,-1000.000,0
1668620278.232,237.793,73.730,-158.691,-194.824,0
1668620278.236,646.973,724.609,418.457,-867.188,0
1668620278.240,-902.832,-794.434,-616.699,47.852,0
1668620278.244,-1000.000,-1000.000,-1000.000,-1000.000,0
1668620278.247,-180.664,-181.641,-526.367,-510.254,0
1668620278.251,-917.480,-902.832,542.480,-937.500,0
1668620278.255,-167.480,-102.539,-70.312,260.254,0
1668620278.259,-1000.000,-1000.000,-1000.000,-1000.000,0
1668620278.263,-409.668,-509.766,-800.781,-1000.000,0
1668620278.265,-912.598,-955.566,344.238,527.344,0
1668620278.269,259.277,259.766,86.914,602.539,0
1668620278.273,-1000.000,-1000.000,-1000.000,-949.707,0
1668620278.277,-896.484,-1000.000,-993.652,-1000.000,0
1668620278.281,707.520,467.773,30.273,-50.293,0
1668620278.285,299.316,428.711,286.621,-975.098,0
1668620278.289,-1000.000,-1000.000,-875.000,-370.117,0
1668620278.292,-1000.000,-1000.000,-1000.000,-1000.000,0
1668620278.296,91.309,-67.871,-179.688,-205.566,0
1668620278.300,762.207,828.613,391.113,-850.586,0
1668620278.304,-767.090,-623.535,-540.527,171.875,0
1668620278.308,-1000.000,-1000.000,-1000.000,-1000.000,0
1668620278.311,-187.012,-213.379,-646.484,-626.465,0
1668620278.315,-892.090,-885.742,428.711,-987.305,0
1668620278.319,-60.059,15.137,-61.523,264.648,0
1668620278.323,-1000.000,-1000.000,-1000.000,-1000.000,0
1668620278.327,-511.230,-649.902,-865.723,-1000.000,0
1668620278.331,-951.660,949.707,251.953,334.473,0
1668620278.335,263.672,272.461,133.789,696.777,0
1668620278.338,-1000.000,-1000.000,-953.125,-884.277,0
1668620278.342,-1000.000,-1000.000,-981.934,-1000.000,0
1668620278.346,536.621,296.387,-37.598,-178.711,0
1668620278.350,434.082,539.551,352.051,-911.621,0
1668620278.354,-1000.000,-963.867,-773.438,-166.992,0
1668620278.355,-1000.000,-1000.000,-1000.000,-1000.000,0
1668620278.359,-106.445,-141.113,-364.258,-312.988,0
1668620278.363,879.883,945.801,445.312,-872.070,0
1668620278.367,-550.293,-423.340,-368.652,253.418,0
1668620278.371,-1000.000,-1000.000,-1000.000,-1000.000,0
1668620278.375,-190.918,-311.035,-698.242,-779.785,0
1668620278.379,-871.582,-896.484,468.750,871.582,0
1668620278.382,42.480,139.160,52.734,382.324,0
1668620278.386,-1000.000,-1000.000,-1000.000,-1000.000,0
1668620278.390,-609.863,-803.711,-927.734,-1000.000,0
1668620278.394,-996.582,799.805,164.062,196.289,0
1668620278.398,264.160,290.527,184.082,824.219,0
1668620278.400,-1000.000,-1000.000,-964.355,-726.562,0
1668620278.404,-1000.000,-1000.000,-1000.000,-1000.000,0
1668620278.408,312.500,172.852,-69.824,-192.383,0
1668620278.412,584.961,637.207,374.023,-877.441,0
1668620278.416,-944.824,-895.508,-720.703,-7.324,0
1668620278.420,-1000.000,-1000.000,-1000.000,-1000.000,0
1668620278.424,-152.832,-171.875,-401.855,-423.828,0
1668620278.427,993.164,-941.406,478.027,-901.855,71
1668620278.431,-349.121,-205.566,-282.715,258.301,0
1668620278.435,-1000.000,-1000.000,-1000.000,-1000.000,0
1668620278.439,-300.293,-424.805,-692.383,-906.738,0
1668620278.443,-886.719,-922.852,421.387,707.031,0
1668620278.462,151.855,238.770,33.203,494.141,0
1668620278.466,-1000.000,-1000.000,-1000.000,-1000.000,0
1668620278.470,-759.277,-950.684,-961.914,-1000.000,0
1668620278.474,862.305,623.047,71.289,20.508,0
1668620278.478,281.250,354.492,235.840,952.637,0
1668620278.482,-1000.000,-1000.000,-897.949,-506.836,0
1668620278.486,-1000.000,-1000.000,-1000.000,-1000.000,0
1668620278.489,168.945,34.180,-186.035,-203.125,0
1668620278.493,680.664,753.906,397.461,-854.980,0
1668620278.497,-869.629,-752.930,-594.238,133.301,0
1668620278.501,-1000.000,-1000.000,-1000.000,-1000.000,0
1668620278.505,-177.246,-184.082,-573.730,-533.203,0
1668620278.505,-916.016,-895.020,437.500,-937.012,0
1668620278.509,-163.574,-64.941,-112.793,257.324,0
1668620278.513,-1000.000,-1000.000,-1000.000,-1000.000,0
1668620278.517,-409.668,-545.898,-846.191,-1000.000,0
1668620278.521,-910.645,-971.680,274.902,480.957,0
1668620278.525,251.953,261.230,121.582,599.609,0
1668620278.529,-1000.000,-1000.000,-1000.000,-942.383,0
1668620278.532,-962.402,-1000.000,-993.164,-1000.000,0
1668620278.536,615.234,403.809,7.324,-171.875,0
1668620278.540,379.883,462.402,385.254,-944.336,0
1668620278.544,-1000.000,-1000.000,-747.070,-248.047,0
1668620278.548,-1000.000,-1000.000,-1000.000,-1000.000,0
1668620278.550,1.465,-96.680,-255.371,-211.914,0
1668620278.554,792.480,861.816,430.664,-841.309,0
1668620278.558,-703.613,-567.383,-501.465,246.582,0
1668620278.562,-1000.000,-1000.000,-1000.000,-1000.000,0
1668620278.566,-183.105,-236.816,-649.414,-637.207,0
1668620278.570,-892.090,-885.742,459.473,-979.980,0
1668620278.574,-60.059,55.664,-15.137,257.324,0
1668620278.577,-1000.000,-1000.000,-1000.000,-1000.000,0
1668620278.581,-533.203,-701.172,-839.355,-1000.000,0
1668620278.585,-962.402,906.738,302.246,259.766,0
1668620278.589,255.859,278.320,129.883,715.820,0
1668620278.593,-1000.000,-1000.000,-993.164,-854.492,0
1668620278.595,-1000.000,-1000.000,-1000.000,-1000.000,0
1668620278.599,373.047,252.930,-48.340,-189.453,0
1668620278.603,513.672,569.824,336.426,-888.184,0
1668620278.607,-982.910,-944.336,-777.832,-79.590,0
1668620278.611,-1000.000,-1000.000,-1000.000,-1000.000,0
1668620278.615,-124.512,-151.855,-364.746,-320.312,0
1668620278.619,887.695,984.863,461.426,-866.211,0
1668620278.622,-527.832,-351.562,-351.074,248.535,0
1668620278.626,-1000.000,-1000.000,-1000.000,-1000.000,0
1668620278.630,-193.848,-346.680,-674.316,-826.172,0
1668620278.634,-866.211,-901.367,381.348,812.988,0
1668620278.638,75.684,187.500,26.855,385.254,0
1668620278.640,-1000.000,-1000.000,-1000.000,-1000.000,0
1668620278.644,-669.922,-848.633,-950.195,-1000.000,0
1668620278.648,947.266,753.418,114.258,83.008,0
1668620278.652,270.020,294.922,185.059,905.273,0
1668620278.656,-1000.000,-1000.000,-963.867,-597.168,0
1668620278.660,-1000.000,-1000.000,-1000.000,-1000.000,0
1668620278.664,243.652,126.953,-98.633,-195.312,0
1668620278.667,600.586,670.410,465.820,-865.723,0
1668620278.671,-928.711,-857.910,-586.426,41.016,0
1668620278.675,-1000.000,-1000.000,-1000.000,-1000.000,0
1668620278.679,-151.367,-176.758,-521.973,-428.711,0
1668620278.683,993.652,-922.852,457.031,-896.484,0
1668620278.700,-345.215,-155.273,-187.500,248.047,0
1668620278.704,-1000.000,-1000.000,-1000.000,-1000.000,0
1668620278.708,-324.219,-466.797,-792.480,-991.699,0
1668620278.712,-887.695,-937.500,349.121,574.219,0
1668620278.716,209.473,249.512,69.336,547.852,0
1668620278.720,-1000.000,-1000.000,-1000.000,-975.586,0
1668620278.724,-886.230,-1000.000,-974.121,-1000.000,0
1668620278.727,713.379,538.086,89.844,-53.711,0
1668620278.731,300.293,381.836,273.438,-974.609,0
1668620278.735,-1000.000,-1000.000,-920.898,-371.094,0
1668620278.739,-1000.000,-1000.000,-1000.000,-1000.000,0
1668620278.743,129.883,-22.461,-75.684,-203.125,0
1668620278.730,675.293,780.273,457.031,-851.562,0
1668620278.734,-866.211,-700.684,-607.910,145.020,0
1668620278.738,-1000.000,-1000.000,-1000.000,-1000.000,0
1668620278.742,-180.664,-186.523,-598.145,-580.078,0
1668620278.746,-911.133,-887.207,440.918,-962.402,0
1668620278.750,-133.301,-29.785,-77.148,255.859,0
1668620278.754,-1000.000,-1000.000,-1000.000,-1000.000,0
1668620278.757,-481.445,-597.656,-858.398,-1000.000,0
1668620278.761,-943.848,992.188,228.027,337.402,0
1668620278.765,259.766,266.602,90.820,669.922,0
1668620278.769,-1000.000,-1000.000,-974.609,-901.367,0
1668620278.773,-1000.000,-1000.000,-980.469,-1000.000,0
1668620278.777,537.109,350.586,-27.832,-180.664,0
1668620278.781,412.598,500.488,310.059,-906.250,0
1668620278.785,-1000.000,-984.863,-817.871,-172.852,0
1668620278.789,-1000.000,-1000.000,-1000.000,-1000.000,0
1668620278.793,3.418,-122.070,-289.551,-222.656,0
1668620278.797,791.992,902.344,459.961,-841.309,0
1668620278.801,-705.078,-496.094,-403.809,239.746,0
1668620278.804,-1000.000,-1000.000,-1000.000,-1000.000,0
1668620278.808,-190.430,-262.695,-685.059,-761.230,0
1668620278.812,-881.836,-887.207,438.477,889.648,0
1668620278.816,2.441,87.402,24.902,329.590,0
1668620278.820,-1000.000,-1000.000,-1000.000,-1000.000,0
1668620278.820,-605.957,-754.395,-919.434,-1000.000,0
1668620278.824,-1000.000,849.121,184.570,204.590,0
1668620278.828,267.090,285.645,158.203,827.148,0
1668620278.832,-1000.000,-1000.000,-986.328,-727.051,0
1668620278.836,-1000.000,-1000.000,-1000.000,-1000.000,0
1668620278.840,352.051,218.262,-23.438,-186.035,0
1668620278.844,515.137,606.445,395.508,-885.254,0
1668620278.847,-983.887,-919.434,-749.512,-63.965,0
1668620278.851,-1000.000,-1000.000,-1000.000,-1000.000,0
1668620278.855,-142.578,-163.086,-340.332,-370.605,0
1668620278.859,940.918,-973.633,518.555,-885.254,0
1668620278.863,-432.129,-272.461,-307.617,250.000,0
1668620278.880,-1000.000,-1000.000,-1000.000,-1000.000,0
1668620278.884,-299.316,-397.949,-738.770,-907.227,0
1668620278.888,-888.184,-916.504,386.230,707.031,0
1668620278.892,151.855,221.191,32.227,482.422,0
1668620278.896,-1000.000,-1000.000,-1000.000,-1000.000,0
1668620278.900,-759.277,-908.203,-932.617,-1000.000,0
1668620278.904,861.328,676.270,130.859,78.613,0
1668620278.907,286.133,316.406,204.590,935.059,0
1668620278.911,-1000.000,-1000.000,-939.941,-554.688,0
1668620278.915,-1000.000,-1000.000,-1000.000,-1000.000,0
1668620278.919,243.652,87.891,-131.836,-194.336,0
1668620278.923,600.586,701.660,391.113,-868.164,0
1668620278.925,-931.152,-818.848,-632.812,42.969,0
1668620278.929,-1000.000,-1000.000,-991.211,-1000.000,0
1668620278.933,-174.316,-180.176,-549.316,-521.484,0
1668620278.937,-944.824,-909.668,413.086,-944.336,0
1668620278.941,-220.703,-119.141,-154.297,262.695,0
1668620278.945,-1000.000,-1000.000,-1000.000,-1000.000,0
1668620278.949,-408.203,-511.719,-798.340,-1000.000,0
1668620278.952,-916.016,-959.961,289.551,525.391,0
1668620278.956,266.602,267.578,108.398,609.375,0
1668620278.960,-1000.000,-1000.000,-989.746,-968.262,0
1668620278.964,-839.844,-988.770,-957.520,-1000.000,0
1668620278.968,795.898,559.570,106.445,38.086,0
1668620278.970,287.109,403.809,270.508,-985.840,0
1668620278.974,-1000.000,-1000.000,-885.254,-369.629,0
1668620278.978,-1000.000,-1000.000,-1000.000,-1000.000,0
1668620278.982,85.938,-68.359,-234.863,-203.125,0
1668620278.986,689.941,806.641,424.316,-852.539,0
1668620278.990,-838.867,-648.926,-521.973,145.020,0
1668620278.994,-1000.000,-1000.000,-1000.000,-1000.000,0
1668620278.997,-187.500,-208.008,-618.652,-622.559,0
1668620279.001,-895.996,-887.207,517.090,-989.258,0
1668620279.005,-73.730,-0.488,3.906,265.137,0
1668620279.009,-1000.000,-1000.000,-1000.000,-1000.000,0
1668620279.013,-509.766,-645.020,-849.609,-1000.000,0
1668620279.015,-952.148,952.148,270.020,334.473,0
1668620279.019,263.672,272.949,119.141,696.289,0
1668620279.023,-1000.000,-1000.000,-984.375,-884.277,0
1668620279.027,-1000.000,-1000.000,-1000.000,-1000.000,0
1668620279.031,537.598,306.641,-29.785,-178.223,0
1668620279.035,409.668,528.809,348.633,-911.621,0
1668620279.039,-1000.000,-969.238,-790.527,-167.480,0
1668620279.042,-1000.000,-1000.000,-1000.000,-1000.000,0
1668620279.046,-73.242,-139.648,-276.367,-312.012,0
1668620279.050,882.324,938.477,422.852,-871.582,0
1668620279.054,-563.965,-435.059,-408.203,252.930,0
1668620279.058,-1000.000,-1000.000,-1000.000,-1000.000,0
1668620279.060,-191.895,-298.828,-710.449,-779.785,0
1668620279.064,-871.582,-892.578,402.832,871.094,0
1668620279.068,43.945,135.254,0.000,383.301,0
1668620279.072,-1000.000,-1000.000,-1000.000,-1000.000,0
1668620279.076,-591.797,-794.434,-900.879,-1000.000,0
1668620279.080,946.289,810.059,118.652,208.496,0
1668620279.084,178.711,290.039,97.656,825.684,0
1668620279.087,-1000.000,-1000.000,-924.316,-727.539,0
1668620279.091,-1000.000,-1000.000,-996.582,-1000.000,0
1668620279.095,344.727,189.941,-100.098,-190.430,0
1668620279.099,580.566,635.254,385.742,-880.371,0
1668620279.103,-951.172,-898.926,-692.871,-25.391,0
1668620279.105,-1000.000,-1000.000,-1000.000,-1000.000,0
1668620279.109,-153.809,-168.945,-461.426,-421.875,0
1668620279.113,993.164,-949.219,464.355,-903.320,0
1668620279.117,-349.121,-225.098,-240.234,258.301,0
1668620279.121,-1000.000,-1000.000,-1000.000,-1000.000,0
1668620279.125,-300.293,-422.852,-757.324,-906.738,0
1668620279.129,-886.230,-924.316,419.434,706.543,0
1668620279.132,151.855,233.398,98.633,495.605,0
1668620279.136,-1000.000,-1000.000,-1000.000,-1000.000,0
1668620279.140,-759.277,-945.312,-972.168,-1000.000,0
1668620279.144,862.305,627.930,87.402,54.688,0
1668620279.148,281.250,346.191,213.379,929.688,0
1668620279.150,-1000.000,-1000.000,-951.172,-552.246,0
1668620279.154,-1000.000,-1000.000,-1000.000,-1000.000,0
1668620279.158,167.480,34.180,-136.230,-201.172,0
1668620279.162,662.109,729.004,407.227,-859.375,0
1668620279.166,-880.371,-776.855,-606.934,112.305,0
1668620279.170,-1000.000,-1000.000,-1000.000,-1000.000,0
1668620279.174,-178.711,-183.105,-458.984,-530.273,0
1668620279.177,-916.016,-898.438,539.551,-938.965,0
1668620279.181,-163.574,-80.566,-145.996,260.254,0
1668620279.185,-1000.000,-1000.000,-1000.000,-1000.000,0
1668620279.189,-409.668,-542.969,-814.453,-1000.000,0
1668620279.193,-911.133,-972.168,265.137,513.184,0
1668620279.195,255.371,262.207,91.309,598.633,0
1668620279.199,-1000.000,-1000.000,-988.281,-944.336,0
1668620279.203,-933.105,-1000.000,-998.047,-1000.000,0
1668620279.207,658.203,418.457,3.906,-142.090,0
1668620279.211,359.863,456.055,278.809,-958.496,0
1668620279.215,-1000.000,-1000.000,-834.961,-289.062,0
1668620279.219,-1000.000,-1000.000,-1000.000,-1000.000,0
1668620279.222,0.000,-93.262,-276.855,-211.426,0
1668620279.226,793.457,853.027,416.992,-842.773,0
1668620279.230,-703.613,-581.055,-478.027,246.582,0
1668620279.234,-1000.000,-1000.000,-1000.000,-1000.000,0
1668620279.238,-182.617,-230.469,-639.648,-637.207,0
1668620279.256,-891.602,-884.766,463.379,-980.469,0
1668620279.260,-60.059,51.758,-27.344,258.789,0
1668620279.264,-1000.000,-1000.000,-1000.000,-1000.000,0
1668620279.268,-511.230,-679.199,-885.254,-1000.000,0
1668620279.272,-949.219,928.711,212.402,284.180,0
1668620279.276,255.371,275.391,161.133,706.055,0
1668620279.280,-1000.000,-1000.000,-966.797,-868.164,0
1668620279.283,-1000.000,-1000.000,-1000.000,-1000.000,0
1668620279.287,423.340,269.043,-62.988,-189.453,0
1668620279.291,510.254,566.895,440.918,-889.648,0
1668620279.295,-983.887,-948.242,-669.922,-83.984,0
1668620279.299,-1000.000,-1000.000,-1000.000,-1000.000,0
1668620279.301,-124.512,-150.879,-347.168,-319.824,0
1668620279.305,887.695,981.934,472.168,-867.188,0
1668620279.309,-527.832,-358.398,-356.934,252.441,0
1668620279.313,-1000.000,-1000.000,-1000.000,-1000.000,0
1668620279.317,-191.895,-334.961,-706.543,-782.715,0
1668620279.321,-868.164,-897.949,448.730,869.141,0
1668620279.325,62.500,180.176,38.574,378.418,0
1668620279.328,-1000.000,-1000.000,-1000.000,-1000.000,0
1668620279.332,-635.742,-839.844,-884.766,-1000.000,0
1668620279.336,981.445,764.160,215.820,112.793,0
1668620279.340,264.648,293.945,174.805,890.625,0
1668620279.344,-1000.000,-1000.000,-959.473,-623.047,0
1668620279.345,-1000.000,-1000.000,-1000.000,-1000.000,0
1668620279.349,259.766,142.090,-91.797,-195.801,0
1668620279.353,602.051,666.016,383.789,-866.211,0
1668620279.357,-929.688,-865.723,-708.008,41.016,0
1668620279.361,-1000.000,-1000.000,-1000.000,-1000.000,0
1668620279.365,-150.879,-175.781,-456.055,-428.711,0
1668620279.369,992.188,-927.246,505.371,-896.973,0
1668620279.372,-349.609,-166.992,-194.336,249.512,0
1668620279.376,-1000.000,-1000.000,-1000.000,-1000.000,0
1668620279.380,-303.711,-458.496,-730.469,-975.098,0
1668620279.384,-882.324,-934.570,313.965,600.098,0
1668620279.388,183.594,247.070,75.195,521.973,0
1668620279.391,-1000.000,-1000.000,-997.070,-987.305,0
1668620279.395,-848.145,-988.770,-986.816,-1000.000,0
1668620279.399,756.836,563.965,43.945,-50.781,0
1668620279.403,293.945,372.070,275.391,-989.746,0
1668620279.407,-1000.000,-1000.000,-876.465,-395.020,0
1668620279.411,-1000.000,-1000.000,-1000.000,-1000.000,0
1668620279.415,129.883,-11.719,-194.336,-203.125,0
1668620279.418,675.293,772.461,485.840,-851.074,0
1668620279.422,-865.234,-713.867,-464.355,145.020,0
1668620279.426,-1000.000,-1000.000,-1000.000,-1000.000,0
1668620279.430,-176.758,-185.547,-601.562,-559.570,0
1668620279.434,-917.969,-889.648,443.848,-949.707,0
1668620279.438,-162.598,-40.527,-100.098,252.441,0
1668620279.442,-1000.000,-1000.000,-1000.000,-1000.000,0
1668620279.446,-457.520,-583.496,-842.773,-1000.000,0
1668620279.450,-934.082,-996.582,268.555,346.680,0
1668620279.454,255.371,265.625,104.492,661.621,0
1668620279.458,-1000.000,-1000.000,-994.141,-906.738,0
1668620279.462,-1000.000,-1000.000,-1000.000,-1000.000,0
1668620279.465,537.109,371.582,29.785,-181.152,0
1668620279.469,412.598,498.047,326.172,-905.273,0
1668620279.473,-1000.000,-987.793,-848.633,-173.340,0
1668620279.477,-1000.000,-1000.000,-1000.000,-1000.000,0
1668620279.481,2.930,-117.188,-247.070,-213.379,0
1668620279.481,791.992,899.902,431.152,-838.379,0
1668620279.485,-705.078,-503.418,-472.656,241.699,0
1668620279.489,-1000.000,-1000.000,-1000.000,-1000.000,0
1668620279.493,-190.918,-253.418,-653.809,-716.309,0
1668620279.497,-880.859,-883.789,385.254,861.328,0
1668620279.501,3.418,87.402,-83.984,220.703,0
1668620279.505,-1000.000,-1000.000,-1000.000,-1000.000,0
1668620279.508,-577.637,-726.562,-868.652,-1000.000,0
1668620279.512,-981.934,882.324,164.062,204.102,0
1668620279.516,261.230,280.762,150.391,813.965,0
1668620279.520,-1000.000,-1000.000,-964.844,-741.699,0
1668620279.524,-1000.000,-1000.000,-1000.000,-1000.000,0
1668620279.526,352.051,229.492,-53.223,-186.523,0
1668620279.530,515.137,603.027,359.375,-884.766,0
1668620279.534,-981.445,-920.898,-746.582,-62.500,0
1668620279.538,-1000.000,-1000.000,-1000.000,-1000.000,0
1668620279.542,-116.699,-141.602,-408.691,-332.031,0
1668620279.546,865.234,960.938,424.316,-933.105,0
1668620279.550,-559.570,-380.371,-326.660,158.691,0
1668620279.553,-1000.000,-1000.000,-1000.000,-1000.000,0
1668620279.557,-235.840,-370.117,-745.605,-901.855,0
1668620279.561,-871.582,-907.227,402.832,711.914,0
1668620279.565,132.812,210.938,61.523,465.820,0
1668620279.569,-1000.000,-1000.000,-1000.000,-1000.000,0
1668620279.570,-759.766,-892.090,-966.797,-1000.000,0
1668620279.574,860.352,698.730,112.305,77.148,0
1668620279.578,286.133,313.965,201.172,935.547,0
1668620279.582,-1000.000,-1000.000,-960.449,-554.688,0
1668620279.586,-1000.000,-1000.000,-1000.000,-1000.000,0
1668620279.590,243.164,91.309,-65.918,-194.336,0
1668620279.594,600.586,702.148,451.172,-867.676,0
1668620279.597,-931.152,-819.824,-669.922,41.992,0
1668620279.601,-1000.000,-1000.000,-1000.000,-1000.000,0
1668620279.605,-173.340,-179.688,-508.789,-494.629,0
1668620279.609,-947.266,-911.621,464.355,-930.176,0
1668620279.613,-226.562,-124.512,-165.039,257.324,0
1668620279.630,-1000.000,-1000.000,-1000.000,-1000.000,0
1668620279.634,-394.531,-497.559,-790.039,-1000.000,0
1668620279.638,-908.691,-951.172,316.406,527.344,0
1668620279.642,256.836,259.277,77.637,597.168,0
1668620279.646,-1000.000,-1000.000,-1000.000,-952.637,0
1668620279.650,-896.484,-1000.000,-980.469,-1000.000,0
1668620279.654,707.031,493.164,41.992,-50.293,0
1668620279.657,300.781,411.133,266.602,-974.609,0
1668620279.661,-1000.000,-1000.000,-907.227,-370.117,0
1668620279.665,-1000.000,-1000.000,-1000.000,-1000.000,0
1668620279.669,118.164,-52.246,-175.781,-203.125,0
1668620279.673,727.051,817.871,389.160,-852.539,0
1668620279.675,-810.547,-643.066,-531.738,145.020,0
1668620279.679,-1000.000,-1000.000,-1000.000,-1000.000,0
1668620279.683,-185.547,-203.613,-625.977,-622.559,0
1668620279.687,-898.438,-888.184,436.035,-989.746,0
1668620279.691,-83.496,-9.766,-68.359,265.137,0
1668620279.695,-1000.000,-1000.000,-1000.000,-1000.000,0
1668620279.699,-509.277,-624.512,-843.750,-1000.000,0
1668620279.702,-953.125,970.215,235.352,334.473,0
1668620279.706,264.160,270.020,146.484,696.777,0
1668620279.710,-1000.000,-1000.000,-958.496,-884.277,0
1668620279.714,-1000.000,-1000.000,-1000.000,-1000.000,0
1668620279.718,537.598,321.777,-30.762,-178.711,0
1668620279.720,410.645,529.297,316.895,-910.156,0
1668620279.724,-1000.000,-969.238,-818.359,-168.457,0
1668620279.728,-1000.000,-1000.000,-1000.000,-1000.000,0
1668620279.732,-49.805,-136.719,-328.125,-292.480,0
1668620279.736,862.793,929.199,444.336,-865.234,0
1668620279.740,-598.145,-449.707,-404.297,250.000,0
1668620279.744,-1000.000,-1000.000,-1000.000,-1000.000,0
1668620279.747,-192.871,-287.598,-691.895,-780.762,0
1668620279.751,-872.559,-890.137,490.234,871.094,0
1668620279.755,42.480,122.559,71.289,383.301,0
1668620279.759,-1000.000,-1000.000,-1000.000,-1000.000,0
1668620279.763,-609.863,-781.250,-895.508,-1000.000,0
1668620279.768,-997.070,823.730,191.895,208.496,0
1668620279.772,267.090,288.086,149.902,825.684,0
1668620279.776,-1000.000,-1000.000,-984.863,-727.051,0
1668620279.780,-1000.000,-1000.000,-1000.000,-1000.000,0
1668620279.784,348.633,191.895,-63.965,-187.500,0
1668620279.788,560.547,628.418,388.672,-885.254,0
1668620279.792,-961.426,-903.320,-725.586,-50.293,0
1668620279.795,-1000.000,-1000.000,-1000.000,-1000.000,0
1668620279.799,-155.273,-167.969,-394.531,-418.945,0
1668620279.803,993.652,-953.125,411.621,-904.785,0
1668620279.807,-349.121,-235.840,-295.410,258.789,0
1668620279.811,-1000.000,-1000.000,-1000.000,-1000.000,0
1668620279.810,-300.293,-410.156,-760.742,-906.738,0
1668620279.814,-888.184,-921.387,373.047,704.590,0
1668620279.818,159.180,235.840,50.781,504.395,0
1668620279.822,-1000.000,-1000.000,-1000.000,-1000.000,0
1668620279.826,-702.637,-881.348,-918.457,-1000.000,0
1668620279.830,949.707,726.074,179.688,166.992,0
1668620279.834,272.461,329.590,230.469,923.828,0
1668620279.837,-1000.000,-1000.000,-904.785,-555.176,0
1668620279.841,-1000.000,-1000.000,-1000.000,-1000.000,0
1668620279.845,200.195,48.828,-192.383,-199.707,0
1668620279.849,658.203,729.004,392.578,-861.328,0
1668620279.853,-888.672,-782.715,-596.191,95.703,0
1668620279.858,-1000.000,-1000.000,-1000.000,-1000.000,0
1668620279.862,-179.688,-183.594,-561.523,-528.320,0
1668620279.866,-915.527,-898.438,480.957,-940.430,0
1668620279.870,-163.574,-81.543,-104.980,261.719,0
1668620279.874,-1000.000,-1000.000,-1000.000,-1000.000,0
1668620279.878,-409.668,-534.180,-807.617,-1000.000,0
1668620279.882,-912.109,-967.285,343.750,527.344,0
1668620279.885,258.301,261.230,128.906,599.121,0
1668620279.889,-1000.000,-1000.000,-1000.000,-944.824,0
1668620279.893,-908.691,-1000.000,-1000.000,-1000.000,0
1668620279.897,694.336,428.223,19.043,-111.816,0
1668620279.901,340.820,448.730,269.531,-983.887,0
1668620279.900,-1000.000,-1000.000,-886.719,-349.121,0
1668620279.904,-1000.000,-1000.000,-1000.000,-1000.000,0
1668620279.908,24.414,-86.426,-254.883,-210.449,0
1668620279.912,805.664,853.516,418.457,-839.355,0
1668620279.916,-725.586,-613.281,-498.047,204.590,0
1668620279.920,-1000.000,-1000.000,-1000.000,-1000.000,0
1668620279.924,-95.215,-137.695,-541.504,-545.410,0
1668620279.927,-902.344,-896.973,524.902,-993.652,0
1668620279.931,-59.570,37.109,-50.781,261.719,0
1668620279.935,-1000.000,-1000.000,-1000.000,-1000.000,0
1668620279.939,-511.230,-668.457,-864.746,-1000.000,0
1668620279.943,-948.730,937.012,205.566,315.430,0
1668620279.945,252.930,272.461,114.746,695.312,0
1668620279.949,-1000.000,-1000.000,-982.910,-884.766,0
1668620279.953,-1000.000,-1000.000,-1000.000,-1000.000,0
1668620279.957,395.996,254.395,-82.031,-188.477,0
1668620279.961,504.395,559.082,333.008,-893.555,0
1668620279.965,-988.770,-948.730,-753.906,-98.633,0
1668620279.969,-1000.000,-1000.000,-1000.000,-1000.000,0
1668620279.972,-107.910,-140.137,-349.609,-318.848,0
1668620279.976,892.578,950.684,420.898,-867.676,0
1668620279.980,-529.785,-416.016,-384.277,252.930,0
1668620279.984,-1000.000,-1000.000,-1000.000,-1000.000,0
1668620279.988,-190.918,-312.988,-713.867,-779.785,0
1668620280.008,-870.605,-891.602,434.082,872.559,0
1668620280.012,43.945,170.410,42.969,378.906,0
1668620280.016,-1000.000,-1000.000,-1000.000,-1000.000,0
1668620280.020,-651.367,-848.633,-939.453,-1000.000,0
1668620280.024,960.938,750.000,123.535,130.859,0
1668620280.028,269.531,295.898,203.125,854.980,0
1668620280.032,-1000.000,-1000.000,-948.730,-671.875,0
1668620280.035,-1000.000,-1000.000,-1000.000,-1000.000,0
1668620280.039,267.578,149.414,-92.773,-194.824,0
1668620280.043,602.539,642.090,469.727,-870.117,0
1668620280.047,-930.664,-888.184,-610.840,24.902,0
1668620280.051,-1000.000,-1000.000,-1000.000,-1000.000,0
1668620280.065,-150.879,-174.805,-469.238,-427.246,0
1668620280.069,992.676,-932.129,473.145,-898.926,0
1668620280.073,-349.121,-180.176,-240.234,253.906,0
1668620280.077,-1000.000,-1000.000,-1000.000,-1000.000,0
1668620280.081,-300.781,-449.707,-757.812,-941.895,0
1668620280.085,-885.254,-932.129,406.250,652.832,0
1668620280.089,153.809,243.652,78.613,497.070,0
1668620280.092,-1000.000,-1000.000,-1000.000,-997.559,0
1668620280.096,-804.199,-973.633,-965.820,-1000.000,0
1668620280.100,805.664,587.402,71.777,-32.227,0
1668620280.104,287.109,360.352,236.816,972.656,0
1668620280.108,-1000.000,-1000.000,-921.875,-458.008,0
1668620280.098,-1000.000,-1000.000,-1000.000,-1000.000,0
1668620280.102,128.418,-12.207,-200.684,-205.078,0
1668620280.106,682.617,786.621,388.672,-845.215,0
1668620280.110,-883.789,-725.098,-590.332,126.953,0
1668620280.114,-1000.000,-1000.000,-1000.000,-1000.000,0
1668620280.118,-88.379,-95.215,-554.688,-446.289,0
1668620280.122,-927.246,-902.832,457.031,-945.312,0
1668620280.125,-163.086,-54.688,-74.707,250.977,0
1668620280.129,-1000.000,-1000.000,-1000.000,-1000.000,0
1668620280.133,-411.621,-555.176,-823.730,-1000.000,0
1668620280.137,-910.645,-975.586,289.062,398.438,0
1668620280.141,249.023,261.719,113.770,614.258,0
1668620280.140,-1000.000,-1000.000,-946.289,-935.547,0
1668620280.144,-993.652,-1000.000,-971.680,-1000.000,0
1668620280.148,569.336,384.766,-15.137,-181.152,0
1668620280.152,409.180,487.305,321.289,-915.527,0
1668620280.156,-1000.000,-993.652,-807.129,-193.848,0
1668620280.160,-1000.000,-1000.000,-1000.000,-1000.000,0
1668620280.164,2.930,-108.398,-316.406,-212.891,0
1668620280.167,791.992,888.672,479.004,-838.867,0
1668620280.171,-704.102,-523.926,-368.164,243.652,0
1668620280.175,-1000.000,-1000.000,-1000.000,-1000.000,0
1668620280.179,-187.012,-244.141,-659.180,-682.129,0
1668620280.183,-886.230,-882.812,465.332,972.168,0
1668620280.185,-25.391,77.148,-18.066,264.160,0
1668620280.189,-1000.000,-1000.000,-1000.000,-1000.000,0
1668620280.193,-568.848,-722.168,-883.301,-1000.000,0
1668620280.197,-979.980,885.742,218.750,223.145,0
1668620280.201,260.742,281.250,162.598,746.582,0
1668620280.205,-1000.000,-1000.000,-969.727,-834.961,0
1668620280.209,-1000.000,-1000.000,-1000.000,-1000.000,0
1668620280.212,352.539,244.141,-8.301,-187.988,0
1668620280.216,515.137,586.426,364.746,-885.254,0
1668620280.220,-982.422,-934.082,-812.988,-65.918,0
1668620280.224,-1000.000,-1000.000,-1000.000,-1000.000,0
1668620280.228,-125.977,-158.203,-399.414,-321.289,0
1668620280.230,891.113,-992.188,423.340,-864.746,0
1668620280.234,-519.531,-309.570,-339.355,244.141,0
1668620280.238,-1000.000,-1000.000,-1000.000,-1000.000,0
1668620280.242,-221.680,-365.234,-715.332,-876.953,0
1668620280.246,-870.605,-905.273,407.227,747.070,0
1668620280.250,104.004,198.242,42.969,428.223,0
1668620280.254,-1000.000,-1000.000,-1000.000,-1000.000,0
1668620280.257,-734.375,-876.953,-910.645,-1000.000,0
1668620280.261,882.324,715.332,101.074,76.660,0
1668620280.265,282.227,304.199,185.059,928.711,0
1668620280.269,-1000.000,-1000.000,-948.242,-564.941,0
1668620280.273,-1000.000,-1000.000,-1000.000,-1000.000,0
1668620280.275,243.164,106.934,-132.812,-194.336,0
1668620280.279,600.586,684.082,392.578,-866.211,0
1668620280.283,-929.199,-839.844,-661.621,41.504,0
1668620280.287,-1000.000,-1000.000,-1000.000,-1000.000,0
1668620280.291,-156.738,-177.246,-533.691,-463.379,0
1668620280.295,-993.652,-920.410,457.031,-914.062,0
1668620280.299,-315.918,-147.949,-119.141,251.465,0
1668620280.302,-1000.000,-1000.000,-1000.000,-1000.000,0
1668620280.306,-366.211,-482.422,-795.410,-1000.000,0
1668620280.310,-900.879,-944.336,361.816,528.809,0
1668620280.314,249.512,257.324,106.445,576.660,0
1668620280.318,-1000.000,-1000.000,-1000.000,-962.891,0
1668620280.335,-896.973,-1000.000,-993.652,-1000.000,0
1668620280.339,707.031,501.465,43.945,-52.246,0
1668620280.343,300.781,382.812,242.676,-974.609,0
1668620280.347,-1000.000,-1000.000,-924.805,-370.117,0
1668620280.351,-1000.000,-1000.000,-1000.000,-1000.000,0
1668620280.355,121.582,-46.387,-155.273,-203.125,0
1668620280.359,711.914,814.453,449.707,-852.051,0
1668620280.362,-827.148,-651.367,-585.938,145.020,0
1668620280.366,-1000.000,-1000.000,-1000.000,-1000.000,0
1668620280.370,-183.594,-198.242,-620.117,-608.887,0
1668620280.374,-902.344,-888.184,449.219,-980.957,0
1668620280.378,-102.051,-17.090,-70.312,262.207,0
1668620280.395,-1000.000,-1000.000,-1000.000,-1000.000,0
1668620280.399,-483.887,-594.238,-814.941,-1000.000,0
1668620280.403,-941.895,996.582,286.621,335.449,0
1668620280.407,259.277,265.137,122.070,686.523,0
1668620280.411,-1000.000,-1000.000,-986.328,-890.625,0
1668620280.415,-1000.000,-1000.000,-1000.000,-1000.000,0
1668620280.419,537.109,339.844,-8.789,-179.199,0
1668620280.422,412.598,521.973,342.773,-908.203,0
1668620280.426,-1000.000,-974.121,-804.688,-170.898,0
1668620280.430,-1000.000,-1000.000,-1000.000,-1000.000,0
1668620280.434,-14.160,-130.371,-283.691,-254.395,0
1668620280.438,855.469,923.828,378.418,-852.051,0
1668620280.425,-623.047,-461.914,-440.430,244.141,0
1668620280.429,-1000.000,-1000.000,-1000.000,-1000.000,0
1668620280.433,-193.848,-272.949,-683.594,-779.785,0
1668620280.437,-872.559,-886.719,429.688,870.605,0
1668620280.441,41.992,105.957,6.836,356.934,0
1668620280.445,-1000.000,-1000.000,-1000.000,-1000.000,0
1668620280.449,-609.863,-770.508,-909.668,-1000.000,0
1668620280.452,-997.559,833.008,166.504,206.543,0
1668620280.456,267.090,287.598,168.945,826.172,0
1668620280.460,-1000.000,-1000.000,-966.797,-727.051,0
1668620280.464,-1000.000,-1000.000,-1000.000,-1000.000,0
1668620280.468,351.562,206.543,-88.379,-186.035,0
1668620280.470,518.555,613.770,430.664,-886.719,0
1668620280.474,-980.957,-911.621,-648.926,-61.035,0
1668620280.478,-1000.000,-1000.000,-1000.000,-1000.000,0
1668620280.482,-131.836,-145.996,-410.156,-375.977,0
1668620280.486,910.645,976.562,442.383,-951.660,0
1668620280.490,-479.980,-349.609,-327.637,166.504,0
1668620280.494,-1000.000,-1000.000,-1000.000,-1000.000,0
1668620280.497,-300.781,-407.715,-729.980,-907.227,0
1668620280.501,-890.137,-922.363,452.637,704.102,0
1668620280.505,151.855,222.656,86.426,497.070,0
1668620280.509,-1000.000,-1000.000,-1000.000,-1000.000,0
1668620280.513,-759.277,-923.828,-938.477,-1000.000,0
1668620280.516,860.840,655.273,144.531,79.590,0
1668620280.520,286.133,329.102,200.195,935.059,0
1668620280.524,-1000.000,-1000.000,-960.449,-554.688,0
1668620280.528,-1000.000,-1000.000,-1000.000,-1000.000,0
1668620280.532,238.770,67.383,-150.879,-195.801,0
1668620280.536,637.695,716.309,402.344,-866.699,0
1668620280.540,-908.691,-799.805,-637.207,54.688,0
1668620280.543,-1000.000,-1000.000,-1000.000,-1000.000,0
1668620280.547,-182.129,-182.129,-507.812,-522.949,0
1668620280.551,-915.039,-902.344,420.898,-943.848,0
1668620280.555,-163.574,-101.074,-148.926,262.207,0
1668620280.559,-1000.000,-1000.000,-1000.000,-1000.000,0
1668620280.560,-409.668,-519.043,-807.129,-1000.000,0
1668620280.564,-912.109,-961.426,304.688,526.855,0
1668620280.568,259.277,260.742,95.703,601.562,0
1668620280.572,-1000.000,-1000.000,-996.582,-948.242,0
1668620280.576,-896.973,-1000.000,-989.258,-1000.000,0
1668620280.580,708.008,458.496,36.621,-68.359,0
1668620280.584,308.594,436.035,291.992,-979.492,0
1668620280.587,-1000.000,-1000.000,-830.078,-367.676,0
1668620280.591,-1000.000,-1000.000,-1000.000,-1000.000,0
1668620280.595,70.312,-73.242,-259.766,-207.520,0
1668620280.599,778.809,833.008,410.156,-848.145,0
1668620280.603,-743.164,-616.211,-487.305,203.613,0
1668620280.606,-1000.000,-1000.000,-1000.000,-1000.000,0
1668620280.610,-187.500,-214.844,-643.066,-630.859,0
1668620280.614,-884.766,-879.883,467.285,-984.863,0
1668620280.618,-78.613,15.625,-36.621,263.672,0
1668620280.622,-1000.000,-1000.000,-1000.000,-1000.000,0
1668620280.626,-422.852,-603.516,-834.473,-1000.000,0
1668620280.630,-962.402,940.918,281.738,334.473,0
1668620280.633,263.184,272.949,176.270,696.777,0
1668620280.637,-1000.000,-1000.000,-985.840,-884.766,0
1668620280.641,-1000.000,-1000.000,-1000.000,-1000.000,0
1668620280.645,530.273,290.527,-13.672,-180.664,0
1668620280.649,459.961,545.898,332.031,-906.738,0
1668620280.650,-1000.000,-960.449,-814.941,-150.391,0
1668620280.654,-1000.000,-1000.000,-1000.000,-1000.000,0
1668620280.658,-97.656,-144.043,-325.195,-314.453,0
1668620280.662,897.461,956.055,441.895,-871.094,0
1668620280.666,-531.738,-405.762,-391.602,252.930,0
1668620280.670,-1000.000,-1000.000,-1000.000,-1000.000,0
1668620280.674,-190.918,-314.453,-657.227,-779.785,0
1668620280.677,-871.582,-895.996,456.543,871.582,0
1668620280.681,42.480,148.926,0.000,381.348,0
1668620280.685,-1000.000,-1000.000,-1000.000,-1000.000,0
1668620280.689,-609.863,-815.430,-880.859,-1000.000,0
1668620280.693,-996.582,787.598,152.832,178.711,0
1668620280.695,264.160,292.480,165.527,821.289,0
1668620280.699,-1000.000,-1000.000,-946.289,-725.098,0
1668620280.703,-1000.000,-1000.000,-1000.000,-1000.000,0
1668620280.707,312.012,169.922,-77.637,-194.336,0
1668620280.711,605.469,645.020,392.578,-874.512,0
1668620280.715,-934.082,-890.137,-669.434,7.812,0
1668620280.719,-1000.000,-1000.000,-1000.000,-1000.000,0
1668620280.722,-150.879,-166.504,-448.730,-425.293,0
1668620280.726,992.676,-953.613,461.914,-900.879,0
1668620280.730,-349.121,-232.910,-241.699,257.812,0
1668620280.734,-1000.000,-1000.000,-1000.000,-1000.000,0
1668620280.738,-300.293,-436.035,-754.395,-906.250,0
1668620280.770,-884.766,-929.199,387.695,707.520,0
1668620280.774,141.602,229.004,86.426,491.211,0
1668620280.778,-1000.000,-1000.000,-1000.000,-997.559,0
1668620280.782,-870.117,-1000.000,-958.984,-1000.000,0
1668620280.786,717.773,535.156,94.238,-23.438,0
1668620280.790,300.781,366.699,278.320,959.473,0
1668620280.794,-1000.000,-1000.000,-886.719,-479.980,0
1668620280.797,-1000.000,-1000.000,-1000.000,-1000.000,0
1668620280.801,133.301,7.812,-185.059,-201.172,0
1668620280.805,647.949,715.820,489.746,-855.957,0
1668620280.809,-882.812,-779.785,-496.582,124.512,0
1668620280.813,-1000.000,-1000.000,-1000.000,-1000.000,0
1668620280.800,-178.711,-183.105,-530.273,-531.738,0
1668620280.804,-916.016,-898.926,499.512,-937.012,0
1668620280.808,-163.086,-79.102,-102.051,254.395,0
1668620280.812,-1000.000,-1000.000,-1000.000,-1000.000,0
1668620280.816,-415.527,-560.547,-797.363,-1000.000,0
1668620280.820,-912.598,-982.422,356.445,443.359,0
1668620280.824,249.512,262.695,142.090,602.051,0
1668620280.827,-1000.000,-1000.000,-977.051,-941.406,0
1668620280.831,-994.141,-1000.000,-971.191,-1000.000,0
1668620280.835,564.941,381.348,26.855,-169.434,0
1668620280.839,376.465,457.520,287.109,-950.684,0
1668620280.843,-1000.000,-1000.000,-860.840,-259.766,0
1668620280.845,-1000.000,-1000.000,-1000.000,-1000.000,0
1668620280.849,0.488,-104.492,-209.961,-211.426,0
1668620280.853,792.969,867.676,428.223,-841.797,0
1668620280.857,-703.613,-554.688,-464.355,245.117,0
1668620280.861,-1000.000,-1000.000,-1000.000,-1000.000,0
1668620280.865,-183.105,-245.117,-632.324,-661.621,0
1668620280.869,-892.090,-888.672,474.609,993.652,0
1668620280.872,-60.059,55.664,-10.254,261.719,0
1668620280.876,-1000.000,-1000.000,-1000.000,-1000.000,0
1668620280.880,-523.438,-691.406,-822.266,-1000.000,0
1668620280.884,-955.566,917.480,207.520,247.070,0
1668620280.888,252.441,276.367,157.227,728.027,0
1668620280.890,-1000.000,-1000.000,-950.195,-839.844,0
1668620280.894,-1000.000,-1000.000,-1000.000,-1000.000,0
1668620280.898,353.027,246.094,-60.059,-190.918,0
1668620280.902,514.648,579.590,372.559,-884.277,0
1668620280.906,-982.422,-937.988,-718.262,-65.918,0
1668620280.910,-1000.000,-1000.000,-1000.000,-1000.000,0
1668620280.914,-124.512,-154.297,-387.207,-321.289,0
1668620280.917,887.695,995.605,518.555,-865.234,0
1668620280.921,-527.832,-333.008,-217.285,248.535,0
1668620280.925,-1000.000,-1000.000,-1000.000,-1000.000,0
1668620280.929,-194.824,-345.703,-709.961,-827.148,0
1668620280.933,-864.746,-899.414,476.074,811.523,0
1668620280.935,81.055,187.988,59.082,390.625,0
1668620280.939,-1000.000,-1000.000,-1000.000,-1000.000,0
1668620280.943,-711.426,-867.676,-925.293,-1000.000,0
1668620280.947,903.809,726.562,154.297,80.078,0
1668620280.951,278.320,297.363,203.125,909.180,0
1668620280.955,-1000.000,-1000.000,-937.988,-591.309,0
1668620280.959,-1000.000,-1000.000,-1000.000,-1000.000,0
1668620280.962,243.652,117.676,-44.922,-195.312,0
1668620280.966,601.074,679.688,437.988,-865.723,0
1668620280.970,-929.199,-846.680,-702.148,41.016,0
1668620280.974,-1000.000,-1000.000,-1000.000,-1000.000,0
1668620280.978,-156.250,-177.734,-496.582,-428.711,0
1668620280.980,-993.164,-920.410,458.008,-895.996,0
1668620280.984,-316.895,-147.949,-158.203,246.094,0
1668620280.988,-1000.000,-1000.000,-1000.000,-1000.000,0
1668620280.992,-354.004,-479.492,-768.555,-1000.000,0
1668620280.996,-898.438,-943.848,338.379,554.199,0
1668620281.000,220.215,253.418,91.797,558.594,0
1668620281.004,-1000.000,-1000.000,-980.469,-971.191,0
1668620281.007,-893.555,-1000.000,-933.594,-1000.000,0
1668620281.011,705.078,529.785,52.734,-53.711,0
1668620281.015,301.270,383.301,259.277,-974.121,0
1668620281.019,-1000.000,-1000.000,-880.371,-370.117,0
1668620281.023,-1000.000,-1000.000,-1000.000,-1000.000,0
1668620281.025,129.883,-33.203,-223.633,-203.125,0
1668620281.029,675.293,788.574,402.832,-851.562,0
1668620281.033,-864.258,-684.570,-550.293,146.973,0
