timestamps,TP9,AF7,AF8,TP10
1667321565.220,-33.203,-100.586,-54.199,-152.832
1667321565.224,-92.285,-117.188,-75.195,-185.547
1667321565.228,-99.609,-135.742,-116.211,-234.375
1667321565.232,-36.621,-115.234,-92.285,-196.777
1667321565.236,-43.945,-104.980,-66.895,-175.781
1667321565.240,-82.520,-106.934,-75.684,-201.660
1667321565.244,-92.773,-126.465,-103.027,-213.867
1667321565.247,-40.527,-110.352,-79.590,-158.691
1667321565.251,-17.090,-87.891,-46.875,-124.023
1667321565.255,-101.074,-119.629,-92.285,-201.660
1667321565.259,-95.215,-119.141,-99.121,-198.242
1667321565.263,-25.391,-93.750,-64.941,-128.906
1667321565.272,-49.805,-99.121,-73.730,-145.996
1667321565.276,-93.262,-101.074,-74.707,-173.828
1667321565.280,-109.863,-94.727,-75.195,-184.570
1667321565.284,-97.656,-91.309,-82.520,-181.152
1667321565.288,-74.707,-88.379,-75.195,-158.691
1667321565.292,-87.891,-76.172,-56.641,-152.344
1667321565.296,-131.836,-83.984,-61.523,-176.758
1667321565.299,-68.359,-64.941,-37.598,-122.070
1667321565.303,-29.785,-65.918,-38.574,-102.539
1667321565.307,-124.023,-100.098,-98.633,-203.125
1667321565.311,-135.742,-81.055,-79.102,-197.266
1667321565.315,-121.582,-80.566,-82.031,-175.781
1667321565.304,-95.703,-84.961,-98.145,-180.664
1667321565.308,-76.660,-67.871,-64.941,-163.574
1667321565.312,-130.371,-66.895,-63.477,-190.918
1667321565.316,-125.000,-66.406,-62.500,-179.688
1667321565.320,-81.543,-72.266,-69.336,-161.133
1667321565.324,-79.590,-71.289,-76.172,-175.781
1667321565.328,-102.539,-61.523,-64.941,-183.594
1667321565.331,-150.879,-72.754,-77.637,-204.102
1667321565.335,-138.184,-75.195,-84.473,-211.426
1667321565.339,-90.332,-58.105,-68.848,-180.664
1667321565.343,-86.426,-36.133,-42.969,-154.785
1667321565.347,-115.723,-40.527,-32.715,-155.273
1667321565.347,-149.414,-76.172,-76.660,-187.500
1667321565.351,-100.586,-64.453,-69.824,-149.902
1667321565.355,-72.754,-38.574,-33.691,-124.512
1667321565.359,-128.906,-48.828,-54.688,-185.547
1667321565.363,-122.070,-47.363,-59.570,-182.129
1667321565.367,-57.129,-35.156,-41.992,-143.066
1667321565.371,-23.926,-17.090,-15.625,-112.305
1667321565.374,-77.637,-22.461,-18.555,-124.023
1667321565.378,-137.695,-61.523,-71.777,-184.570
1667321565.382,-55.664,-36.133,-43.457,-128.418
1667321565.386,-7.324,-18.066,-16.602,-90.820
1667321565.390,-69.336,-41.504,-45.898,-150.391
1667321565.408,-105.957,-48.340,-51.758,-162.598
1667321565.412,-61.035,-38.086,-37.598,-118.164
1667321565.416,-5.371,-31.250,-26.855,-89.844
1667321565.420,-27.344,-36.133,-36.133,-107.910
1667321565.424,-70.312,-40.039,-38.086,-124.512
1667321565.428,-27.344,-31.250,-11.230,-83.496
1667321565.432,24.902,-25.391,-9.277,-52.246
1667321565.435,-28.809,-47.363,-47.363,-116.699
1667321565.439,-64.453,-42.969,-41.992,-142.578
1667321565.443,-35.645,-36.621,-29.785,-119.141
1667321565.447,2.930,-41.504,-32.227,-102.539
1667321565.451,7.812,-39.551,-34.180,-105.957
1667321565.452,-25.879,-37.598,-27.344,-120.117
1667321565.456,-26.855,-30.273,-11.230,-103.516
1667321565.460,9.766,-33.203,-15.625,-82.520
1667321565.464,17.578,-42.969,-30.273,-97.168
1667321565.468,-5.371,-36.133,-17.578,-108.398
1667321565.472,-22.949,-35.645,-3.906,-106.445
1667321565.476,-4.395,-48.340,-18.066,-94.727
1667321565.479,11.719,-55.664,-26.367,-91.309
1667321565.483,-5.371,-50.293,-19.531,-107.910
1667321565.487,-4.395,-23.926,12.695,-91.797
1667321565.491,-13.672,-38.574,-5.859,-98.633
1667321565.495,-14.160,-62.500,-40.527,-111.328
1667321565.513,-2.930,-45.410,-20.508,-113.770
1667321565.517,-33.203,-36.133,-11.719,-123.047
1667321565.521,-41.016,-44.922,-24.902,-100.586
1667321565.525,9.277,-49.316,-27.344,-98.145
1667321565.529,27.344,-46.875,-19.531,-112.305
1667321565.533,6.348,-37.109,-1.465,-112.793
1667321565.537,-17.090,-41.016,-10.742,-122.070
1667321565.540,-14.160,-58.594,-41.992,-130.371
1667321565.544,22.949,-43.457,-20.508,-97.168
1667321565.548,6.836,-39.062,0.977,-88.379
1667321565.552,-48.828,-66.406,-35.645,-144.531
1667321565.556,-36.133,-69.336,-45.898,-137.207
1667321565.542,23.438,-50.293,-25.391,-87.402
1667321565.546,10.742,-45.410,-23.926,-108.398
1667321565.550,-39.062,-47.363,-31.250,-151.855
1667321565.554,-7.324,-33.691,-24.414,-125.977
1667321565.558,56.152,-14.648,0.000,-68.848
1667321565.562,34.668,-26.855,-11.230,-85.938
1667321565.566,-20.020,-39.551,-28.320,-122.559
1667321565.569,-25.391,-41.016,-19.531,-115.234
1667321565.573,55.664,-19.531,15.137,-50.293
1667321565.577,42.480,-32.715,-8.301,-66.406
1667321565.581,-39.551,-64.453,-41.504,-133.301
1667321565.585,-37.109,-49.805,-15.625,-119.629
1667321565.604,48.828,-18.555,21.484,-38.574
1667321565.608,43.945,-45.410,-11.719,-55.664
1667321565.612,-0.977,-47.852,-21.484,-99.121
1667321565.616,-14.160,-36.621,-7.324,-104.004
1667321565.620,-4.395,-48.828,-26.367,-99.609
1667321565.624,43.457,-38.086,-9.766,-57.129
1667321565.628,31.250,-33.203,0.488,-64.941
1667321565.631,-6.836,-35.645,0.000,-86.426
1667321565.635,2.441,-33.691,9.277,-59.082
1667321565.639,7.812,-55.664,-20.020,-71.777
1667321565.643,-5.371,-59.082,-32.227,-94.727
1667321565.647,-28.809,-43.457,-11.230,-99.121
1667321565.632,-48.340,-53.711,-18.555,-111.816
1667321565.636,-9.766,-54.199,-18.555,-88.867
1667321565.640,28.809,-34.668,0.977,-63.965
1667321565.644,-1.953,-27.344,9.277,-75.195
1667321565.648,-30.762,-36.621,-0.977,-102.539
1667321565.652,6.348,-39.551,-1.465,-91.309
1667321565.656,30.762,-38.086,6.836,-72.754
1667321565.659,2.441,-31.250,13.184,-81.055
1667321565.663,-58.594,-50.293,-10.742,-117.188
1667321565.667,-44.922,-56.641,-17.578,-108.887
1667321565.671,0.488,-46.875,-13.184,-79.590
1667321565.675,30.762,-18.555,28.809,-35.645
1667321565.725,-34.180,-34.180,10.254,-79.102
1667321565.729,-85.449,-67.383,-50.781,-147.949
1667321565.733,-9.277,-37.598,-22.461,-96.191
1667321565.737,-6.348,-26.855,-18.066,-97.656
1667321565.741,-65.430,-34.668,-36.621,-144.531
1667321565.745,-67.383,-28.320,-27.344,-136.719
1667321565.749,-20.020,-12.695,-21.484,-97.656
1667321565.752,22.949,0.000,-18.555,-56.152
1667321565.756,-36.133,-26.855,-42.480,-100.098
1667321565.760,-79.102,-35.645,-35.156,-127.930
1667321565.764,-54.199,-33.691,-23.926,-109.375
1667321565.768,-29.297,-40.039,-29.297,-102.051
1667321565.727,-54.199,-43.945,-28.320,-125.977
1667321565.731,-90.332,-50.293,-21.484,-139.648
1667321565.735,-49.316,-46.875,8.301,-87.402
1667321565.739,-32.715,-60.059,-3.906,-83.496
1667321565.743,-45.410,-61.523,-17.578,-112.305
1667321565.747,-32.227,-38.574,13.672,-92.773
1667321565.751,-15.625,-35.645,21.484,-66.895
1667321565.754,-44.434,-74.219,-32.715,-105.469
1667321565.758,-56.641,-80.566,-40.527,-119.629
1667321565.762,-60.547,-58.105,-3.418,-101.562
1667321565.766,-85.938,-67.383,-10.254,-111.816
1667321565.770,-76.172,-80.566,-36.621,-124.512
1667321565.783,-48.340,-71.289,-40.039,-117.676
1667321565.787,-40.039,-57.129,-15.625,-102.051
1667321565.791,-50.293,-52.734,-5.371,-95.215
1667321565.795,-79.590,-84.961,-51.758,-134.766
1667321565.799,-48.340,-81.055,-53.223,-125.488
1667321565.803,-27.832,-50.781,-19.043,-91.797
1667321565.807,-41.016,-41.504,5.859,-90.332
1667321565.810,-48.828,-61.523,-13.672,-124.023
1667321565.814,-64.941,-84.961,-58.105,-162.109
1667321565.818,-55.664,-73.242,-44.922,-147.461
1667321565.822,-77.637,-70.312,-41.504,-154.785
1667321565.826,-85.449,-76.172,-52.734,-161.621
1667321565.842,-47.852,-74.707,-50.293,-135.254
1667321565.846,-23.926,-59.082,-30.273,-106.934
1667321565.850,-60.059,-66.406,-31.738,-124.023
1667321565.854,-91.309,-82.031,-49.316,-144.531
1667321565.858,-54.199,-76.660,-45.898,-115.723
1667321565.862,-2.441,-51.270,-19.531,-73.242
1667321565.866,-41.504,-45.898,-23.438,-110.840
1667321565.869,-126.953,-79.590,-64.941,-183.105
1667321565.873,-93.262,-81.543,-61.035,-159.668
1667321565.877,1.953,-49.805,-19.043,-84.961
1667321565.881,-43.457,-64.453,-41.504,-113.770
1667321565.885,-128.418,-84.473,-67.383,-182.129
1667321565.876,-118.652,-78.125,-55.664,-166.992
1667321565.880,-64.941,-68.359,-42.969,-125.488
1667321565.884,-61.523,-67.383,-45.898,-130.859
1667321565.888,-95.703,-69.336,-57.617,-160.156
1667321565.892,-90.820,-59.570,-55.664,-153.320
1667321565.896,-54.688,-46.387,-38.086,-108.398
1667321565.900,-37.109,-54.688,-40.527,-101.074
1667321565.903,-82.520,-63.965,-62.012,-148.438
1667321565.907,-111.328,-53.711,-48.340,-150.391
1667321565.911,-65.430,-55.664,-39.551,-120.605
1667321565.915,-21.973,-58.105,-52.734,-125.000
1667321565.919,-58.105,-63.965,-58.594,-146.484
1667321565.917,-64.941,-55.176,-32.715,-132.324
1667321565.921,-45.410,-55.176,-27.344,-111.816
1667321565.925,-69.824,-80.078,-57.617,-141.113
1667321565.929,-73.242,-68.359,-46.387,-139.160
1667321565.933,-82.520,-50.293,-26.367,-134.766
1667321565.937,-81.055,-44.922,-29.297,-136.719
1667321565.941,-59.082,-47.363,-40.527,-131.348
1667321565.944,-78.125,-59.082,-42.480,-139.160
1667321565.948,-71.289,-40.527,-12.695,-127.441
1667321565.952,-67.383,-35.156,-11.230,-111.816
1667321565.956,-128.418,-70.801,-58.105,-153.809
1667321565.960,-76.660,-55.176,-52.246,-155.273
1667321565.966,-62.500,-36.133,-37.109,-145.996
1667321565.970,-106.934,-45.898,-43.457,-157.715
1667321565.974,-88.867,-54.688,-45.410,-143.555
1667321565.978,-80.078,-55.664,-40.527,-125.488
1667321565.982,-105.469,-43.945,-29.785,-139.648
1667321565.986,-139.160,-54.199,-37.109,-158.691
1667321565.990,-122.070,-62.988,-44.922,-151.367
1667321565.993,-87.891,-51.270,-28.809,-121.094
1667321565.997,-107.422,-43.457,-12.695,-102.051
1667321566.001,-182.617,-62.988,-54.688,-175.293
1667321566.005,-158.691,-53.711,-64.453,-175.293
1667321566.009,-109.375,-40.039,-41.504,-124.512
1667321566.007,-117.188,-39.062,-50.293,-129.883
1667321566.011,-159.180,-39.062,-45.410,-156.250
1667321566.015,-159.668,-44.922,-35.156,-163.086
1667321566.019,-102.051,-28.320,-41.504,-118.652
1667321566.023,-97.168,-10.742,-28.809,-95.703
1667321566.027,-146.973,-24.414,-26.367,-120.605
1667321566.031,-159.668,-35.156,-50.293,-151.367
1667321566.034,-87.891,-9.766,-26.367,-109.375
1667321566.038,-50.781,-20.020,-20.020,-80.078
1667321566.042,-146.973,-66.895,-66.895,-162.109
1667321566.046,-177.734,-58.594,-62.012,-191.406
1667321566.050,-119.629,-35.645,-55.176,-167.480
1667321566.054,-83.984,-37.598,-67.383,-161.133
1667321566.058,-119.629,-40.527,-47.363,-166.016
1667321566.062,-133.301,-37.598,-23.926,-173.828
1667321566.066,-127.930,-49.316,-51.758,-160.645
1667321566.070,-80.078,-42.480,-44.922,-116.699
1667321566.074,-70.312,-5.859,-21.484,-125.977
1667321566.078,-174.316,-11.230,-31.250,-155.273
1667321566.081,-152.344,-40.527,-18.555,-105.469
1667321566.085,-132.324,-34.180,-52.734,-155.762
1667321566.089,-145.996,-19.043,-52.734,-187.500
1667321566.093,-102.539,-13.672,-26.855,-122.559
1667321566.097,-242.676,-32.227,-65.430,-195.312
1667321566.097,-248.047,-37.109,-75.195,-256.348
1667321566.101,-66.406,13.672,-50.293,-141.113
1667321566.105,-83.008,-5.859,-36.621,-182.617
1667321566.109,-166.504,-35.156,-71.289,-276.855
1667321566.113,-166.504,-30.762,-51.758,-115.234
1667321566.117,-43.945,-24.414,-37.598,-52.246
1667321566.121,-50.293,24.414,-13.184,-103.027
1667321566.124,-94.727,20.508,2.441,-94.727
1667321566.128,-290.039,-46.875,-82.520,-385.254
1667321566.132,-429.688,8.301,-86.914,-364.746
1667321566.136,-238.281,44.922,-33.691,-109.375
1667321566.140,-191.406,8.301,-62.012,-208.984
1667321566.158,-213.867,-54.199,-61.035,-228.027
1667321566.162,-162.598,-34.180,-12.207,-206.055
1667321566.166,-217.773,-11.719,-58.594,-79.590
1667321566.170,-236.816,6.348,-95.215,-212.402
1667321566.174,-149.902,-34.180,-57.617,-148.926
1667321566.178,-225.098,-43.945,-66.895,-95.215
1667321566.182,-248.047,6.836,-30.762,-142.578
1667321566.185,-307.617,-34.668,-53.223,-237.305
1667321566.189,-398.926,-28.809,-42.969,-379.395
1667321566.193,-364.746,11.230,-56.641,-467.773
1667321566.197,-196.777,-57.129,-92.773,-130.371
1667321566.201,-343.750,42.480,-52.246,-186.523
1667321566.202,-338.379,-25.879,-116.211,-626.953
1667321566.206,-317.383,-96.680,-70.801,-571.777
1667321566.210,-512.207,-63.965,-21.484,-592.285
1667321566.214,-354.492,52.246,-81.055,-463.867
1667321566.218,-345.215,-3.906,-48.340,-218.262
1667321566.222,-245.117,-60.547,-4.883,-300.293
1667321566.226,-333.496,8.301,-20.996,-446.289
1667321566.229,-205.566,-95.703,-57.617,-239.746
1667321566.233,-197.266,-100.586,-158.203,-390.137
1667321566.237,-390.625,-34.180,-128.906,-314.941
1667321566.241,-469.238,-56.641,-17.090,-206.543
1667321566.245,-557.617,-73.242,9.277,-488.770
1667321566.251,-504.883,19.531,-126.953,-296.387
1667321566.255,-442.383,46.875,-118.164,-253.906
1667321566.259,-427.246,6.348,-6.836,-323.730
1667321566.263,-286.621,-67.871,-105.957,-88.379
1667321566.267,-219.238,-63.965,-23.926,-126.953
1667321566.271,-296.387,-55.176,-27.832,-162.598
1667321566.275,-369.141,-22.461,-144.043,-195.801
1667321566.278,-376.465,-31.250,-33.203,-361.816
1667321566.282,-286.621,-19.043,-23.926,-173.828
1667321566.286,-356.445,-4.883,-55.664,18.555
1667321566.290,-678.223,86.914,-163.574,-393.066
1667321566.294,-289.551,18.555,-117.676,-208.496
1667321566.307,-21.973,-26.855,-7.324,-76.172
1667321566.311,-174.316,7.324,-34.668,-180.664
1667321566.315,-245.117,-42.969,-86.914,-90.332
1667321566.319,-281.738,-0.977,-34.180,-140.625
1667321566.323,-104.004,-16.113,-50.781,-254.395
1667321566.327,-71.289,10.742,-70.312,12.207
1667321566.331,-218.750,112.793,-44.922,-8.301
1667321566.334,-153.809,-26.367,-46.875,-168.457
1667321566.338,-28.809,-40.527,-21.484,-158.203
1667321566.342,14.648,33.203,-66.895,23.926
1667321566.346,-61.035,39.062,-65.918,-39.062
1667321566.350,-290.527,101.074,-56.152,-236.328
1667321566.340,-105.469,25.879,-62.988,-31.250
1667321566.344,-71.777,18.066,-92.285,-55.664
1667321566.348,5.371,-10.254,-61.523,17.578
1667321566.352,11.230,27.832,-61.035,140.137
1667321566.356,9.277,-19.043,-84.473,58.105
1667321566.360,177.246,-67.871,-37.109,50.293
1667321566.364,26.367,-10.254,21.973,64.941
1667321566.367,-16.602,-92.285,-4.883,48.340
1667321566.371,-23.438,3.418,-155.762,-0.488
1667321566.375,31.738,92.285,-45.898,17.090
1667321566.379,-1.465,2.441,8.301,-11.230
1667321566.383,67.383,-66.895,-13.672,-3.418
1667321566.397,64.453,70.312,-54.688,21.484
1667321566.401,-29.297,37.109,-126.465,44.434
1667321566.405,162.109,-68.848,-41.016,228.516
1667321566.409,31.738,30.273,9.277,89.355
1667321566.413,58.105,-28.809,-51.270,46.875
1667321566.417,109.863,-42.969,-36.621,171.875
1667321566.421,148.438,-18.066,-64.941,204.590
1667321566.424,157.715,0.488,8.301,71.289
1667321566.428,34.668,109.375,-17.090,-12.695
1667321566.432,22.461,-8.301,-95.703,62.500
1667321566.436,112.305,-75.195,14.648,85.938
1667321566.440,100.098,-45.898,-9.277,107.910
1667321566.429,6.836,-12.207,-79.590,20.996
1667321566.433,132.324,-44.434,-13.672,126.953
1667321566.437,251.465,-20.020,-43.945,97.168
1667321566.441,178.223,0.977,-61.035,18.555
1667321566.445,168.945,-21.484,-6.836,201.172
1667321566.449,124.512,-10.742,-11.230,131.836
1667321566.453,32.227,53.223,-12.695,82.520
1667321566.456,99.609,-13.672,-36.621,137.695
1667321566.460,134.277,-55.176,-88.867,42.969
1667321566.464,153.809,-64.941,-34.668,-59.570
1667321566.468,115.234,29.785,-25.879,-7.324
1667321566.472,90.332,73.242,-82.520,26.855
1667321566.487,201.172,-62.012,-49.316,132.324
1667321566.491,166.016,-51.758,-60.059,89.355
1667321566.495,99.609,28.809,-84.473,-25.391
1667321566.499,187.988,-37.109,-82.031,127.441
1667321566.503,171.387,-71.289,-61.523,99.121
1667321566.507,104.004,-29.297,-15.625,-104.004
1667321566.511,196.289,-5.859,-61.035,17.090
1667321566.514,277.344,-22.461,-73.730,124.023
1667321566.518,200.195,-74.219,-80.566,16.113
1667321566.522,67.871,-38.574,-71.777,-24.902
1667321566.526,94.727,-12.695,-68.848,-42.480
1667321566.530,236.328,-55.176,-54.688,-21.484
1667321566.532,264.648,-29.297,-87.402,87.402
1667321566.536,192.383,-7.812,-83.984,95.215
1667321566.540,174.805,-71.777,-61.523,24.414
1667321566.544,202.148,-88.379,-74.707,33.203
1667321566.548,216.309,-76.172,-37.109,55.664
1667321566.552,185.059,-29.785,-20.020,37.109
1667321566.556,144.043,-34.668,-58.594,13.672
1667321566.559,161.133,-76.172,-57.617,13.672
1667321566.563,210.938,-55.176,-58.594,10.254
1667321566.567,248.535,-63.965,-35.156,66.406
1667321566.571,217.773,-65.430,-16.113,76.660
1667321566.575,150.391,-80.566,-48.340,-29.297
1667321566.562,181.152,-57.617,-44.922,-34.668
1667321566.566,198.730,-57.617,-22.461,-0.488
1667321566.570,98.633,-83.008,-23.438,-63.477
1667321566.574,118.652,-74.707,-62.500,-54.688
1667321566.578,187.012,-61.035,-66.406,4.883
1667321566.582,210.938,-39.062,-28.320,20.508
1667321566.586,165.527,-45.410,-30.273,-21.973
1667321566.589,103.516,-63.477,-46.875,-99.609
1667321566.593,128.906,-66.406,-60.547,-56.641
1667321566.597,178.223,-50.293,-23.926,-6.348
1667321566.601,106.934,-67.871,-22.461,-82.520
1667321566.605,37.109,-73.730,-58.594,-127.930
1667321566.624,100.586,-59.082,-56.152,-90.820
1667321566.628,136.719,-59.570,-44.434,-62.012
1667321566.632,117.676,-65.430,-36.133,-62.500
1667321566.636,87.891,-62.988,-28.320,-82.031
1667321566.640,71.289,-63.477,-40.039,-87.891
1667321566.644,109.863,-78.613,-36.621,-55.664
1667321566.648,111.328,-75.684,-48.340,-77.637
1667321566.651,51.270,-59.570,-52.734,-129.883
1667321566.655,54.199,-46.387,-33.691,-109.863
1667321566.659,86.914,-61.523,-41.504,-91.309
1667321566.663,68.359,-71.777,-53.711,-117.676
1667321566.667,63.477,-58.105,-42.480,-117.676
1667321566.667,53.223,-60.059,-50.781,-130.859
1667321566.671,38.574,-76.172,-55.664,-125.977
1667321566.675,32.715,-74.219,-42.969,-98.633
1667321566.679,42.969,-55.664,-28.320,-96.191
1667321566.683,21.973,-50.293,-21.484,-107.910
1667321566.687,-6.348,-76.172,-43.457,-138.184
1667321566.691,33.691,-74.219,-48.828,-119.141
1667321566.694,54.199,-59.570,-26.367,-93.262
1667321566.698,58.105,-38.574,2.441,-84.473
1667321566.702,37.598,-41.992,-8.789,-91.309
1667321566.706,22.949,-68.848,-50.293,-117.676
1667321566.710,57.129,-57.617,-37.598,-96.680
1667321566.715,22.949,-53.711,-34.180,-104.492
1667321566.719,-28.809,-57.617,-51.270,-151.855
1667321566.723,-8.301,-49.805,-51.270,-141.113
1667321566.727,49.316,-47.852,-37.109,-95.215
1667321566.731,36.133,-55.664,-27.832,-94.727
1667321566.735,-12.695,-53.711,-28.809,-130.371
1667321566.739,-6.348,-56.152,-34.180,-127.930
1667321566.742,77.148,-39.551,-13.184,-77.148
1667321566.746,88.379,-23.438,-1.953,-67.871
1667321566.750,-24.414,-62.500,-54.199,-154.297
1667321566.754,-24.414,-63.477,-56.641,-152.832
1667321566.758,40.527,-34.668,-14.648,-94.727
1667321566.772,40.039,-40.039,-19.531,-104.004
1667321566.776,-12.207,-53.711,-41.016,-131.836
1667321566.780,-21.973,-59.570,-38.574,-123.047
1667321566.784,20.020,-50.781,-28.809,-117.676
1667321566.788,34.668,-42.480,-27.832,-131.836
1667321566.792,18.555,-49.316,-30.273,-126.953
1667321566.796,-3.418,-43.457,-24.902,-121.582
1667321566.799,36.621,-26.367,-10.742,-90.820
1667321566.803,80.566,-29.297,-17.578,-65.430
1667321566.807,18.066,-60.059,-54.199,-125.488
1667321566.811,-14.160,-54.688,-45.410,-147.949
1667321566.815,9.277,-41.504,-40.527,-123.535
1667321566.804,2.930,-61.035,-62.500,-124.023
1667321566.808,0.977,-72.266,-43.457,-110.352
1667321566.812,-15.625,-54.688,-39.551,-132.812
1667321566.816,-16.602,-45.898,-46.875,-135.254
1667321566.820,12.695,-62.012,-50.293,-117.676
1667321566.824,41.992,-49.805,-33.691,-95.215
1667321566.828,0.000,-45.898,-21.973,-140.625
1667321566.831,-36.133,-49.316,-43.457,-163.086
1667321566.835,17.090,-54.688,-46.387,-102.539
1667321566.839,40.039,-59.570,-43.945,-103.027
1667321566.843,24.902,-33.691,-20.996,-118.164
1667321566.847,2.441,-33.691,-11.719,-121.094
1667321566.847,-16.113,-75.684,-50.293,-136.719
1667321566.851,12.695,-62.012,-44.434,-113.281
1667321566.855,11.719,-33.691,-32.715,-116.211
1667321566.859,-29.297,-48.828,-55.664,-175.293
1667321566.863,-20.508,-58.594,-59.082,-166.992
1667321566.867,13.184,-52.734,-41.992,-135.742
1667321566.871,44.434,-24.902,-2.441,-88.379
1667321566.874,13.184,-30.273,3.418,-82.031
1667321566.878,-71.777,-67.871,-59.082,-181.641
1667321566.882,-27.344,-58.105,-69.824,-186.523
1667321566.886,57.129,-25.391,-41.992,-101.562
1667321566.890,-7.812,-38.086,-44.922,-138.184
1667321566.907,-69.336,-59.570,-26.367,-197.754
1667321566.911,-3.906,-48.828,-27.344,-152.832
1667321566.915,6.348,-39.551,-57.617,-100.098
1667321566.919,-6.348,-48.340,-43.945,-102.539
1667321566.923,-32.227,-49.805,-30.762,-139.160
1667321566.927,-21.484,-24.902,-23.438,-132.324
1667321566.931,70.312,-16.113,-3.418,-24.902
1667321566.934,25.391,-34.180,-28.320,-76.660
1667321566.938,-44.922,-53.711,-55.176,-150.391
1667321566.942,-23.438,-46.875,-42.969,-122.559
1667321566.946,-2.441,-39.551,-46.387,-106.934
1667321566.950,-9.766,-46.875,-48.828,-120.117
1667321566.939,-6.836,-35.156,-41.504,-119.141
1667321566.943,-1.953,-22.461,-28.320,-103.027
1667321566.947,21.973,-21.973,-30.762,-83.984
1667321566.951,25.391,-26.855,-42.480,-81.543
1667321566.955,-7.324,-28.809,-37.598,-104.004
1667321566.959,-5.371,-15.625,-16.113,-91.309
1667321566.963,0.000,-27.832,-30.273,-99.121
1667321566.966,-9.766,-42.969,-60.059,-136.719
1667321566.970,-3.906,-32.715,-32.715,-106.934
1667321566.974,-8.789,-16.602,-10.254,-84.473
1667321566.978,-19.531,-34.668,-46.387,-114.746
1667321566.982,15.137,-38.086,-58.105,-114.746
1667321567.004,32.715,-21.973,-46.387,-110.840
1667321567.008,10.742,-7.324,-6.836,-89.355
1667321567.012,-14.160,-26.367,-29.297,-107.910
1667321567.016,16.113,-37.109,-61.035,-108.887
1667321567.020,42.480,-14.648,-30.273,-81.543
1667321567.024,40.527,3.906,4.395,-75.195
1667321567.028,-17.578,-29.785,-28.809,-131.836
1667321567.031,-18.066,-47.363,-46.387,-144.531
1667321567.035,49.805,-18.555,-17.090,-83.984
1667321567.039,17.090,-20.020,-20.508,-93.750
1667321567.043,-57.617,-38.574,-48.340,-156.250
1667321567.047,-20.508,-29.297,-42.969,-137.207
1667321567.058,28.320,-17.578,-31.250,-107.910
1667321567.062,0.000,-22.949,-43.945,-128.418
1667321567.066,-39.551,-29.785,-46.875,-131.836
1667321567.070,-8.301,-23.926,-22.949,-116.211
1667321567.074,59.570,-13.672,-6.836,-85.449
1667321567.078,52.246,-13.184,-8.301,-83.008
1667321567.082,-3.906,-22.949,-11.230,-108.887
1667321567.085,-19.043,-31.250,-40.039,-140.625
1667321567.089,39.551,-12.207,-11.719,-82.520
1667321567.093,49.316,-8.789,-3.418,-71.777
1667321567.097,-30.762,-39.551,-50.293,-148.438
1667321567.101,-35.156,-33.691,-27.344,-126.953
1667321567.089,-10.254,-31.738,-10.742,-93.262
1667321567.093,19.043,-23.926,-10.742,-83.496
1667321567.097,23.926,-12.695,-11.719,-95.703
1667321567.101,-38.086,-27.832,-25.879,-118.652
1667321567.105,-22.461,-24.902,-11.719,-83.496
1667321567.109,27.344,-27.832,-11.719,-74.707
1667321567.113,-10.742,-35.645,-18.066,-100.586
1667321567.116,-43.945,-23.438,-4.883,-87.402
1667321567.120,-36.133,-29.297,-24.902,-92.773
1667321567.124,-35.645,-39.062,-33.691,-87.402
1667321567.128,-13.184,-25.391,-17.578,-89.844
1667321567.132,-28.809,-19.043,-11.230,-112.793
1667321567.147,-51.270,-32.715,-11.719,-82.520
1667321567.151,-30.762,-49.316,-38.086,-83.984
1667321567.155,-0.488,-35.645,-34.668,-89.844
1667321567.159,-13.672,-9.766,-20.508,-79.102
1667321567.163,-25.391,-6.348,-12.695,-69.336
1667321567.167,-14.160,-20.996,-3.418,-58.105
1667321567.171,-9.766,-25.879,-3.418,-66.895
1667321567.174,1.465,-19.043,17.578,-49.316
1667321567.178,-21.973,-24.414,9.766,-55.176
1667321567.182,-43.945,-53.223,-26.367,-106.445
1667321567.186,-26.855,-60.059,-20.996,-78.613
1667321567.190,-36.621,-42.480,-6.836,-64.941
1667321567.181,-62.988,-38.086,-3.906,-92.285
1667321567.185,-59.570,-44.922,-9.766,-94.727
1667321567.189,-18.555,-50.781,-12.207,-88.379
1667321567.193,-4.883,-45.898,-16.113,-90.820
1667321567.197,-41.992,-41.992,-22.949,-94.727
1667321567.201,-35.156,-30.762,-9.277,-71.289
1667321567.205,28.809,-23.438,8.301,-40.039
1667321567.208,13.672,-37.598,-0.977,-41.992
1667321567.212,-63.965,-46.875,-24.414,-83.496
1667321567.216,-86.914,-42.480,-26.367,-113.281
1667321567.220,-20.996,-28.809,-6.836,-74.707
1667321567.224,43.457,-17.578,-0.977,-41.504
1667321567.222,-13.184,-39.062,-25.879,-84.961
1667321567.226,-57.617,-37.109,-15.625,-91.309
1667321567.230,-17.090,-29.297,-2.930,-58.594
1667321567.234,-1.953,-41.992,-25.391,-73.730
1667321567.238,11.719,-35.156,-25.391,-65.918
1667321567.242,-4.883,-35.645,-16.602,-49.316
1667321567.246,-14.648,-37.109,-9.277,-48.340
1667321567.249,41.992,-20.020,5.371,-9.766
1667321567.253,24.414,-41.016,-32.227,-63.477
1667321567.257,-26.367,-47.363,-43.457,-122.559
1667321567.261,-29.297,-37.598,-28.320,-105.957
1667321567.265,-19.043,-52.246,-45.898,-80.078
1667321567.270,4.395,-51.758,-41.504,-49.316
1667321567.274,-16.602,-38.574,-33.203,-85.938
1667321567.278,-44.434,-39.551,-35.645,-111.816
1667321567.282,-23.438,-47.363,-41.992,-82.520
1667321567.286,11.230,-36.621,-33.203,-65.918
1667321567.290,4.883,-26.855,-13.184,-93.750
1667321567.294,-31.250,-32.227,-13.184,-96.191
1667321567.297,-41.992,-55.176,-51.758,-116.211
1667321567.301,-22.949,-50.293,-53.223,-122.559
1667321567.305,-1.465,-18.555,-24.902,-102.051
1667321567.309,-16.602,-11.719,-17.578,-115.234
1667321567.313,-45.898,-36.621,-35.645,-125.977
1667321567.312,-27.344,-50.293,-40.039,-110.352
1667321567.316,-11.719,-32.715,-18.555,-100.586
1667321567.320,-39.062,-31.738,-20.020,-118.164
1667321567.324,-69.336,-38.086,-37.109,-137.695
1667321567.328,-62.988,-23.926,-23.438,-135.742
1667321567.332,-15.137,-9.277,0.000,-115.723
1667321567.336,-77.637,-24.902,-25.391,-184.570
1667321567.339,-179.688,-42.969,-53.711,-264.648
1667321567.343,-145.020,-32.227,-24.902,-220.703
1667321567.347,-89.844,-14.648,5.371,-187.012
1667321567.351,-166.992,-42.969,-29.297,-249.023
1667321567.355,-247.559,-58.105,-56.152,-323.730
1667321567.389,-241.211,-38.574,-42.480,-322.754
1667321567.393,-222.656,-41.016,-18.555,-266.602
1667321567.397,-242.676,-59.570,-34.180,-293.945
1667321567.401,-295.898,-70.801,-56.641,-369.629
1667321567.405,-308.105,-64.941,-51.270,-372.559
1667321567.409,-245.117,-48.828,-37.109,-330.566
1667321567.413,-221.680,-57.617,-44.922,-320.801
1667321567.416,-248.535,-60.547,-55.664,-336.914
1667321567.420,-238.770,-45.898,-33.203,-305.176
1667321567.424,-193.848,-50.293,-34.668,-266.602
1667321567.428,-172.363,-54.199,-60.547,-272.949
1667321567.432,-182.617,-44.434,-44.922,-262.207
1667321567.417,-188.965,-50.781,-47.852,-256.348
1667321567.421,-166.992,-65.918,-79.590,-248.535
1667321567.425,-125.488,-62.500,-71.777,-202.148
1667321567.429,-83.496,-46.387,-49.316,-167.969
1667321567.433,-104.004,-41.992,-54.199,-175.293
1667321567.437,-94.238,-53.223,-63.965,-157.715
1667321567.441,-12.695,-45.410,-66.406,-113.770
1667321567.444,4.883,-47.363,-66.895,-99.609
1667321567.448,-17.578,-52.246,-60.547,-100.586
1667321567.452,-25.391,-55.176,-79.102,-104.980
1667321567.456,5.371,-57.129,-80.566,-87.402
1667321567.460,33.691,-52.246,-60.547,-45.898
1667321567.494,50.781,-37.109,-25.391,1.953
1667321567.498,24.414,-48.340,-44.922,-28.320
1667321567.502,1.953,-75.684,-93.262,-76.172
1667321567.506,40.039,-60.059,-69.336,-38.086
1667321567.510,38.086,-55.176,-61.035,-33.691
1667321567.514,7.324,-55.664,-70.312,-67.871
1667321567.518,20.996,-54.688,-67.871,-57.129
1667321567.521,84.473,-47.363,-53.223,-14.648
1667321567.525,94.238,-29.297,-29.785,-1.465
1667321567.529,13.184,-55.176,-64.941,-61.523
1667321567.533,1.465,-68.359,-83.496,-73.730
1667321567.537,71.289,-55.664,-55.176,-36.621
1667321567.507,60.547,-61.523,-57.617,-40.039
1667321567.511,4.883,-64.453,-69.336,-82.520
1667321567.515,3.418,-56.641,-62.012,-81.543
1667321567.519,44.434,-48.340,-55.664,-53.711
1667321567.523,65.430,-45.410,-55.664,-46.875
1667321567.527,37.598,-39.062,-51.758,-51.758
1667321567.531,18.066,-36.621,-53.223,-69.824
1667321567.534,50.781,-32.227,-43.457,-42.969
1667321567.538,56.641,-47.852,-59.570,-43.457
1667321567.542,2.441,-61.523,-85.938,-87.891
1667321567.546,-34.180,-42.480,-62.012,-87.891
1667321567.550,-0.488,-31.738,-44.434,-54.199
1667321567.554,28.809,-43.945,-70.312,-58.105
1667321567.558,23.926,-39.062,-69.824,-75.684
1667321567.562,5.371,-22.949,-53.711,-83.984
1667321567.566,27.344,-7.812,-23.438,-38.086
1667321567.570,23.926,-40.039,-55.176,-53.711
1667321567.574,16.602,-48.340,-74.707,-94.238
1667321567.578,8.789,-25.879,-51.758,-89.844
1667321567.581,-8.789,-22.461,-40.527,-74.707
1667321567.585,-14.648,-41.992,-63.965,-93.262
1667321567.589,6.836,-33.203,-60.547,-74.707
1667321567.593,-4.395,-21.973,-45.898,-67.871
1667321567.597,-54.688,-40.527,-66.406,-135.742
1667321567.597,-36.133,-46.875,-66.895,-135.742
1667321567.601,11.719,-35.645,-56.152,-98.145
1667321567.605,23.926,-21.973,-41.992,-90.820
1667321567.609,-9.766,-27.832,-48.828,-104.492
1667321567.613,-35.645,-31.738,-57.617,-104.492
1667321567.617,5.371,-24.414,-41.504,-76.660
1667321567.621,31.738,-20.508,-18.555,-51.270
1667321567.624,-6.348,-15.137,-20.020,-70.312
1667321567.628,-68.359,-40.039,-67.871,-134.277
1667321567.632,-24.414,-35.156,-61.035,-99.609
1667321567.636,21.973,-17.090,-34.668,-61.035
1667321567.640,-28.320,-25.391,-42.480,-93.750
1667321567.657,-79.102,-41.992,-55.664,-110.840
1667321567.661,-40.039,-36.621,-48.828,-86.426
1667321567.665,7.324,-27.832,-38.086,-61.523
1667321567.669,-26.855,-37.109,-50.293,-89.844
1667321567.673,-67.383,-39.062,-55.176,-124.023
1667321567.677,-40.039,-29.785,-36.621,-88.379
1667321567.681,23.438,-18.066,-18.066,-40.039
1667321567.684,-8.789,-34.668,-45.898,-87.891
1667321567.688,-63.965,-37.109,-52.246,-130.371
1667321567.692,-44.922,-28.320,-41.992,-104.004
1667321567.696,9.766,-23.438,-42.969,-79.102
1667321567.700,20.996,-20.996,-41.992,-91.797
1667321567.732,-19.531,-28.320,-38.086,-115.234
1667321567.736,-41.992,-28.320,-29.297,-96.191
1667321567.740,-0.977,-28.320,-30.273,-74.219
1667321567.744,4.395,-36.133,-46.875,-94.727
1667321567.748,-46.387,-39.062,-50.781,-113.281
1667321567.752,-49.805,-20.508,-21.973,-109.375
1667321567.756,-30.273,-28.320,-39.062,-103.027
1667321567.759,-3.418,-39.062,-49.316,-87.402
1667321567.763,-31.250,-37.598,-40.527,-104.004
1667321567.767,-68.359,-23.926,-28.320,-97.656
1667321567.771,-59.570,-44.922,-49.805,-96.680
1667321567.775,-21.973,-46.875,-61.523,-110.352
1667321567.748,-10.742,-23.438,-43.457,-104.004
1667321567.752,-58.594,-33.203,-45.410,-128.906
1667321567.756,-64.941,-34.668,-48.340,-126.465
1667321567.760,-24.902,-23.926,-54.199,-108.398
1667321567.764,-8.301,-9.766,-38.574,-97.168
1667321567.768,-42.969,-23.438,-33.691,-111.328
1667321567.772,-63.965,-40.527,-46.875,-135.742
1667321567.775,-55.176,-35.645,-39.551,-119.629
1667321567.779,-25.391,-19.531,-26.367,-91.309
1667321567.783,-36.133,-17.090,-27.344,-101.074
1667321567.787,-57.617,-24.902,-30.762,-124.023
1667321567.791,-30.273,-33.203,-30.273,-108.398
1667321567.792,15.625,-18.555,-15.625,-73.242
1667321567.796,2.441,-9.277,-18.555,-94.727
1667321567.800,-44.434,-15.625,-25.391,-123.047
1667321567.804,-45.898,-24.414,-32.715,-127.930
1667321567.808,0.977,1.953,-11.719,-84.473
1667321567.812,-3.418,16.113,-8.301,-76.660
1667321567.816,-46.387,-20.508,-41.992,-129.395
1667321567.819,-56.641,-16.602,-42.969,-110.840
1667321567.823,7.812,3.906,-9.766,-43.457
1667321567.827,5.371,-3.906,-35.645,-81.055
1667321567.831,-83.984,4.883,-56.641,-135.742
1667321567.835,-61.035,-19.531,-21.484,-103.027
1667321567.852,-17.578,-31.250,-32.715,-91.309
1667321567.856,-26.367,-21.973,-37.598,-107.422
1667321567.860,-33.691,-7.324,-30.273,-109.375
1667321567.864,-49.316,-19.531,-26.855,-110.840
1667321567.868,-62.500,-23.438,-29.785,-113.770
1667321567.872,-0.488,2.441,-36.621,-91.309
1667321567.876,2.930,-19.043,-26.367,-106.445
1667321567.879,-52.734,-20.020,10.742,-136.719
1667321567.883,-92.285,43.945,20.020,-160.156
1667321567.887,-94.727,34.180,-63.965,-177.246
1667321567.891,-30.273,-62.500,-16.113,-125.488
1667321567.895,-33.691,-31.250,5.859,-170.410
1667321567.882,-63.965,79.102,-87.891,-182.617
1667321567.886,-133.789,68.848,-57.129,-156.738
1667321567.890,-69.824,-55.664,-56.641,-122.070
1667321567.894,5.371,-76.660,-28.320,-56.641
1667321567.898,-36.133,18.555,-48.828,-173.828
1667321567.902,-21.973,0.977,-46.387,-181.152
1667321567.906,46.875,-35.156,-22.461,-40.527
1667321567.909,-136.719,112.305,-60.059,-228.516
1667321567.913,-143.555,-4.883,12.695,-265.625
1667321567.917,-52.246,-114.258,-4.395,-158.203
1667321567.921,5.859,-59.082,-42.969,-79.590
1667321567.925,-212.402,85.938,50.781,-300.781
1667321567.944,-146.484,48.828,-68.359,-267.090
1667321567.948,38.574,-107.910,-56.152,-40.527
1667321567.952,-6.348,-61.523,32.715,-131.836
1667321567.956,32.227,-41.016,-38.574,-153.809
1667321567.960,-168.457,42.969,-87.402,-353.027
1667321567.964,-182.129,55.176,-45.410,-112.793
1667321567.968,97.168,-158.203,19.531,177.734
1667321567.971,74.707,-151.367,-37.598,60.059
1667321567.975,-37.598,-39.062,-19.043,-133.789
1667321567.979,-55.176,2.930,-87.891,-218.262
1667321567.983,47.363,-76.172,-92.773,-98.633
1667321567.987,1.465,-91.797,-7.324,-116.211
1667321567.973,-36.621,-39.551,-29.297,-274.902
1667321567.977,-0.977,-80.078,-35.156,-124.512
1667321567.981,-84.473,-83.008,-57.617,-238.281
1667321567.985,9.277,-84.473,-77.637,-366.211
1667321567.989,-8.789,-32.227,-92.773,-232.910
1667321567.993,-40.527,-29.297,-59.082,-136.719
1667321567.997,76.172,-83.008,-65.430,-149.902
1667321568.000,95.703,-117.188,-127.930,-178.711
1667321568.004,18.066,-90.820,-133.301,-186.035
1667321568.008,-5.371,-73.730,-49.316,-208.984
1667321568.012,-12.207,-12.207,-43.457,-245.605
1667321568.016,26.367,-30.273,-70.312,-33.203
1667321568.032,17.090,-44.434,-104.492,-103.516
1667321568.036,63.965,-58.594,-74.707,-135.742
1667321568.040,4.883,-72.754,0.000,-44.434
1667321568.044,-60.059,-22.461,-49.805,-68.359
1667321568.048,28.809,-61.035,-78.613,43.457
1667321568.052,59.570,-61.523,-69.824,57.129
1667321568.056,-0.488,-33.203,-34.668,-17.090
1667321568.059,-36.621,-83.496,-76.660,-29.297
1667321568.063,20.996,-62.012,-101.074,27.832
1667321568.067,74.707,-41.504,-86.426,41.016
1667321568.071,-4.883,-54.688,-88.867,-18.066
1667321568.075,-76.172,-54.199,-81.055,-44.922
1667321568.077,2.930,-48.340,-75.195,26.367
1667321568.081,60.059,-40.039,-62.500,48.828
1667321568.085,4.395,-45.898,-62.012,-2.441
1667321568.089,-41.016,-47.852,-60.547,-5.859
1667321568.093,-19.043,-35.156,-48.340,15.137
1667321568.097,11.719,-29.785,-41.016,37.598
1667321568.101,-18.555,-34.668,-59.570,14.160
1667321568.104,-53.223,-34.668,-67.383,-34.180
1667321568.108,-39.062,-32.227,-55.664,-15.137
1667321568.112,19.531,-23.926,-44.434,27.832
1667321568.116,-17.090,-29.785,-55.664,-8.789
1667321568.120,-62.988,-29.785,-56.641,-50.293
1667321568.124,-32.227,-29.297,-45.898,-35.156
1667321568.128,4.395,-15.137,-17.578,20.996
1667321568.132,-22.461,-20.020,-35.156,-12.695
1667321568.136,-71.289,-30.273,-55.664,-69.336
1667321568.140,-51.270,-21.973,-38.086,-38.086
1667321568.144,-8.789,-17.578,-35.645,-20.996
1667321568.148,-2.930,-21.484,-45.410,-39.551
1667321568.151,-48.340,-24.902,-47.852,-49.805
1667321568.155,-64.941,-13.184,-36.621,-35.156
1667321568.159,-13.184,-20.020,-33.203,1.465
1667321568.163,-12.207,-46.387,-53.223,-16.113
1667321568.167,-58.594,-40.527,-52.734,-35.156
1667321568.167,-86.914,-32.715,-44.922,-43.457
1667321568.171,-68.848,-38.574,-50.293,-39.062
1667321568.175,-33.691,-40.527,-55.176,-29.785
1667321568.179,-43.945,-33.691,-42.480,-20.996
1667321568.183,-74.219,-29.785,-26.367,-32.715
1667321568.187,-75.684,-31.738,-24.414,-27.344
1667321568.191,-62.012,-43.457,-41.504,-25.879
1667321568.194,-43.457,-41.504,-43.945,-31.250
1667321568.198,-51.270,-19.531,-20.020,-17.578
1667321568.202,-72.754,-17.578,-11.230,-16.113
1667321568.206,-89.355,-47.852,-53.711,-59.082
1667321568.210,-48.340,-34.668,-41.504,-48.340
1667321568.214,-59.570,-21.973,-27.344,-54.688
1667321568.218,-111.816,-36.621,-41.992,-91.797
1667321568.222,-91.797,-38.574,-39.551,-68.848
1667321568.226,-38.086,-21.973,-27.832,-52.246
1667321568.230,-42.969,-11.230,-17.090,-74.219
1667321568.234,-89.355,-14.160,-12.207,-86.914
1667321568.238,-119.629,-41.504,-31.250,-97.168
1667321568.241,-104.004,-34.180,-29.785,-85.938
1667321568.245,-70.801,11.230,17.578,-60.547
1667321568.249,-156.250,-23.926,-4.883,-141.602
1667321568.253,-191.895,-35.645,-27.832,-190.918
1667321568.257,-157.715,-9.766,-16.602,-174.805
1667321568.272,-177.734,-16.602,-32.227,-209.473
1667321568.276,-229.004,-20.020,-37.109,-250.488
1667321568.280,-260.742,-21.484,-29.297,-279.297
1667321568.284,-236.328,-16.113,-29.297,-283.691
1667321568.288,-220.703,-22.461,-29.785,-281.250
1667321568.292,-245.605,-24.902,-14.648,-294.434
1667321568.296,-294.922,-24.414,-29.785,-333.496
1667321568.299,-257.324,-10.254,-23.926,-287.598
1667321568.303,-219.727,-25.391,-20.020,-260.254
1667321568.307,-285.645,-54.199,-63.477,-348.145
1667321568.311,-293.945,-35.156,-56.641,-358.887
1667321568.315,-264.648,-35.645,-53.223,-329.102
1667321568.302,-253.906,-42.969,-68.359,-324.219
1667321568.306,-231.934,-34.668,-49.805,-307.129
1667321568.310,-225.586,-32.227,-30.273,-292.480
1667321568.314,-238.281,-49.805,-54.199,-296.875
1667321568.318,-212.891,-58.105,-59.570,-283.691
1667321568.322,-163.574,-41.016,-27.832,-238.770
1667321568.326,-160.156,-31.250,-24.902,-222.656
1667321568.329,-181.641,-48.828,-34.668,-236.328
1667321568.333,-172.852,-62.012,-49.805,-230.469
1667321568.337,-124.512,-51.270,-58.594,-208.984
1667321568.341,-88.379,-31.738,-39.062,-183.594
1667321568.345,-90.332,-27.832,-24.414,-144.043
1667321568.347,-122.070,-62.012,-69.336,-169.922
1667321568.351,-74.219,-58.594,-80.078,-145.996
1667321568.355,-31.250,-37.109,-48.340,-107.422
1667321568.359,-70.312,-47.852,-48.828,-121.582
1667321568.363,-65.430,-60.547,-47.363,-106.445
1667321568.367,-5.371,-62.500,-47.363,-72.754
1667321568.371,53.223,-46.387,-24.902,-18.066
1667321568.374,24.902,-43.457,-22.461,-46.387
1667321568.378,-49.316,-77.637,-78.613,-128.418
1667321568.382,2.441,-76.660,-71.777,-89.355
1667321568.386,78.613,-46.387,-45.898,-39.062
1667321568.390,33.203,-50.293,-56.152,-63.477
1667321568.408,-13.672,-64.453,-67.871,-78.613
1667321568.412,37.109,-59.570,-60.547,-38.086
1667321568.416,84.961,-56.641,-48.828,-8.789
1667321568.420,49.805,-58.594,-54.199,-35.156
1667321568.424,14.160,-53.711,-46.387,-46.387
1667321568.428,51.758,-45.898,-31.250,-16.602
1667321568.432,103.516,-44.922,-28.320,16.113
1667321568.435,59.082,-66.406,-59.082,-36.621
1667321568.439,-2.930,-69.824,-73.242,-84.473
1667321568.443,-1.953,-65.430,-62.500,-68.359
1667321568.447,30.762,-67.871,-62.988,-45.410
1667321568.451,42.480,-63.477,-63.965,-39.551
1667321568.437,18.066,-58.594,-51.758,-63.965
1667321568.441,-3.418,-58.594,-51.270,-69.824
1667321568.445,25.879,-57.617,-60.059,-53.223
1667321568.449,62.500,-50.781,-51.758,-34.180
1667321568.453,29.785,-53.711,-52.734,-45.898
1667321568.457,20.508,-37.109,-39.062,-43.945
1667321568.461,29.785,-41.504,-45.898,-30.762
1667321568.464,45.898,-48.340,-47.363,-22.949
1667321568.468,36.133,-39.551,-40.527,-54.199
1667321568.472,9.766,-35.156,-43.457,-63.965
1667321568.476,-1.953,-46.875,-60.547,-58.594
1667321568.480,20.996,-50.293,-71.289,-62.988
1667321568.514,39.062,-41.504,-54.199,-64.453
1667321568.518,-3.906,-41.992,-47.363,-90.332
1667321568.522,-27.344,-52.246,-59.082,-105.469
1667321568.526,5.859,-54.688,-60.059,-91.797
1667321568.530,44.434,-39.551,-38.574,-75.684
1667321568.534,13.672,-31.738,-27.344,-85.449
1667321568.538,-40.039,-46.387,-47.852,-113.770
1667321568.541,-11.719,-53.711,-56.152,-102.539
1667321568.545,43.457,-38.086,-33.691,-60.547
1667321568.549,21.973,-34.180,-25.879,-62.988
1667321568.553,-40.039,-50.781,-47.363,-111.816
1667321568.557,-24.902,-59.082,-61.523,-120.605
1667321568.542,15.137,-50.293,-50.293,-84.961
1667321568.546,-15.137,-44.434,-51.758,-103.027
1667321568.550,-61.035,-52.734,-65.430,-132.324
1667321568.554,-53.711,-62.500,-61.523,-108.887
1667321568.558,-0.488,-53.223,-52.734,-98.145
1667321568.562,7.812,-49.805,-46.387,-111.328
1667321568.566,-50.293,-61.035,-49.805,-143.066
1667321568.569,-38.086,-55.176,-44.434,-133.789
1667321568.573,6.836,-48.340,-39.062,-90.332
1667321568.577,8.301,-45.898,-50.293,-88.867
1667321568.581,-31.738,-50.781,-65.918,-133.301
1667321568.585,-62.500,-55.176,-64.453,-143.066
1667321568.589,14.160,-28.320,-21.484,-55.664
1667321568.593,39.551,-33.691,-21.484,-39.062
1667321568.597,-29.785,-59.570,-60.059,-118.164
1667321568.601,-64.453,-52.246,-49.316,-120.117
1667321568.605,-25.391,-46.875,-37.109,-80.566
1667321568.609,19.531,-37.598,-33.203,-70.312
1667321568.613,-10.254,-46.387,-45.898,-99.609
1667321568.616,-55.664,-52.734,-45.898,-105.957
1667321568.620,-39.551,-36.621,-25.879,-82.520
1667321568.624,-18.555,-46.875,-46.387,-98.633
1667321568.628,-5.859,-47.852,-49.805,-107.422
1667321568.632,-26.855,-41.504,-44.922,-118.652
1667321568.632,-62.012,-49.316,-55.664,-118.652
1667321568.636,-31.738,-51.270,-59.082,-102.051
1667321568.640,-10.254,-37.109,-42.969,-83.984
1667321568.644,-41.016,-38.086,-35.156,-87.891
1667321568.648,-76.660,-50.293,-51.758,-114.258
1667321568.652,-46.875,-41.504,-48.340,-102.051
1667321568.656,3.906,-31.738,-37.109,-76.172
1667321568.659,20.996,-15.137,-11.230,-54.688
1667321568.663,-8.789,-10.742,-1.953,-56.152
1667321568.667,-62.988,-44.922,-59.570,-120.117
1667321568.671,-36.133,-48.340,-71.289,-119.141
1667321568.675,-20.508,-38.086,-48.828,-90.820
1667321568.679,-71.289,-41.992,-61.035,-133.301
1667321568.683,-67.871,-40.039,-60.547,-143.555
1667321568.687,-20.020,-35.156,-44.922,-101.562
1667321568.691,-16.602,-36.133,-40.527,-88.379
1667321568.695,-47.363,-32.715,-41.504,-122.559
1667321568.699,-46.875,-27.832,-43.945,-125.000
1667321568.703,-15.625,-33.203,-32.227,-87.891
1667321568.706,11.230,-31.250,-9.277,-51.758
1667321568.710,-52.734,-53.223,-45.898,-109.863
1667321568.714,-92.773,-55.176,-48.340,-129.883
1667321568.718,-52.246,-55.176,-28.320,-93.262
1667321568.722,-16.602,-60.547,-27.344,-73.242
1667321568.722,-38.574,-61.523,-20.996,-96.191
1667321568.726,-67.383,-64.941,-13.672,-108.398
1667321568.730,-41.016,-59.570,-16.113,-74.707
1667321568.734,-8.789,-60.547,-27.832,-57.617
1667321568.738,-10.742,-50.781,-22.949,-60.547
1667321568.742,-42.480,-43.945,-20.996,-84.961
1667321568.746,-20.508,-36.621,-8.301,-67.383
1667321568.749,29.785,-31.738,3.418,-20.996
1667321568.753,-24.414,-61.035,-44.922,-72.754
1667321568.757,-63.965,-61.035,-49.316,-108.887
1667321568.761,-65.918,-55.176,-28.809,-87.891
1667321568.765,-53.711,-61.035,-35.156,-69.336
1667321568.782,-28.809,-56.152,-38.086,-83.008
1667321568.786,-22.949,-44.922,-22.461,-84.961
1667321568.790,-35.645,-34.668,-11.230,-83.008
1667321568.794,-35.645,-47.363,-33.203,-93.750
1667321568.798,-2.930,-49.316,-31.250,-63.965
1667321568.802,12.207,-27.344,-0.977,-42.969
1667321568.806,-20.996,-24.414,0.000,-64.941
1667321568.809,-42.969,-43.457,-28.320,-90.332
1667321568.813,-9.277,-44.922,-31.738,-68.359
1667321568.817,-5.371,-34.668,-21.484,-54.199
1667321568.821,-56.152,-42.969,-28.320,-89.844
1667321568.825,-77.637,-55.664,-49.316,-111.816
1667321568.812,-24.414,-42.969,-41.016,-72.266
1667321568.816,7.812,-32.715,-26.855,-43.945
1667321568.820,-29.297,-40.039,-38.574,-71.289
1667321568.824,-59.570,-46.875,-48.340,-100.098
1667321568.828,-44.434,-48.828,-47.363,-94.238
1667321568.832,-1.465,-30.762,-20.508,-55.664
1667321568.836,-18.066,-19.043,-17.578,-49.805
1667321568.839,-72.266,-37.109,-39.062,-86.426
1667321568.843,-57.129,-44.434,-41.504,-93.750
1667321568.847,17.090,-23.926,-16.602,-56.152
1667321568.851,-11.719,-36.621,-34.668,-79.102
1667321568.855,-76.660,-52.246,-49.805,-115.723
1667321568.874,-55.176,-37.109,-39.062,-93.262
1667321568.878,-22.461,-40.039,-47.363,-75.195
1667321568.882,-17.090,-42.969,-47.363,-76.172
1667321568.886,-45.410,-37.109,-45.898,-91.309
1667321568.890,-50.781,-31.250,-40.039,-94.727
1667321568.894,-16.602,-29.297,-34.668,-67.383
1667321568.898,-10.254,-41.016,-43.945,-65.918
1667321568.901,-58.594,-52.734,-57.129,-113.770
1667321568.905,-56.641,-36.621,-41.992,-104.492
1667321568.909,-18.555,-26.855,-30.273,-70.312
1667321568.913,-43.457,-53.711,-57.617,-107.910
1667321568.917,-54.199,-49.316,-59.082,-122.070
1667321568.917,-62.012,-32.715,-46.875,-108.887
1667321568.921,-57.129,-44.922,-47.852,-103.516
1667321568.925,-12.207,-48.340,-41.504,-92.773
1667321568.929,-10.742,-39.551,-32.715,-87.402
1667321568.933,-57.617,-45.410,-39.062,-111.328
1667321568.937,-60.059,-47.363,-47.363,-112.793
1667321568.941,-25.879,-37.598,-39.062,-83.984
1667321568.944,-35.156,-41.992,-45.410,-92.773
1667321568.948,-34.668,-28.320,-24.902,-78.613
1667321568.952,-35.156,-24.414,-17.090,-62.988
1667321568.956,-68.359,-53.711,-70.312,-110.352
1667321568.960,-41.992,-48.828,-62.500,-112.305
1667321568.964,-43.457,-41.016,-38.086,-103.027
1667321568.968,-84.473,-53.223,-55.664,-126.953
1667321568.972,-51.758,-52.734,-50.781,-111.328
1667321568.976,2.441,-35.645,-26.855,-66.895
1667321568.980,-19.043,-32.715,-29.785,-76.172
1667321568.984,-65.430,-49.316,-39.062,-109.375
1667321568.988,-68.848,-58.594,-41.504,-114.746
1667321568.991,-26.855,-50.781,-41.504,-95.703
1667321568.995,-7.812,-40.039,-29.785,-89.355
1667321568.999,-69.336,-54.199,-46.875,-124.512
1667321569.003,-75.195,-46.875,-50.781,-108.887
1667321569.007,-3.906,-23.926,-31.738,-82.520
1667321569.022,0.977,-22.461,-34.668,-96.680
1667321569.026,-58.594,-37.109,-49.316,-122.070
1667321569.030,-72.754,-41.016,-47.852,-135.254
1667321569.034,-30.762,-33.691,-39.551,-108.398
1667321569.038,-14.160,-38.086,-40.527,-101.074
1667321569.042,-44.922,-35.156,-36.133,-120.605
1667321569.046,-85.938,-37.598,-47.363,-146.973
1667321569.049,-31.738,-20.020,-19.043,-95.215
1667321569.053,14.160,-17.090,-16.602,-58.594
1667321569.057,-68.359,-49.316,-75.195,-135.742
1667321569.061,-101.562,-48.340,-62.012,-151.367
1667321569.065,-74.707,-42.480,-42.480,-132.812
1667321569.054,-44.922,-45.898,-59.570,-128.418
1667321569.058,-32.715,-41.016,-54.688,-129.395
1667321569.062,-66.406,-35.156,-41.992,-130.371
1667321569.066,-83.008,-38.086,-39.551,-117.188
1667321569.070,-59.570,-41.992,-47.363,-110.840
1667321569.074,-24.902,-23.926,-33.691,-95.215
1667321569.078,-46.875,-20.020,-25.879,-97.656
1667321569.081,-75.684,-29.297,-38.086,-101.074
1667321569.085,-66.895,-34.180,-47.363,-115.723
1667321569.089,-30.273,-31.250,-50.781,-108.398
1667321569.093,-14.648,-15.137,-28.320,-86.426
1667321569.097,-51.758,-15.625,-24.414,-98.145
1667321569.097,-76.172,-43.457,-62.012,-129.883
1667321569.101,-39.551,-42.969,-62.500,-106.934
1667321569.105,-20.020,-23.926,-38.086,-84.961
1667321569.109,-79.590,-38.086,-53.711,-131.836
1667321569.113,-82.031,-46.875,-61.523,-138.184
1667321569.117,-24.414,-32.715,-47.852,-102.539
1667321569.121,-1.465,-12.695,-23.926,-72.266
1667321569.124,-29.297,-14.160,-20.508,-85.449
1667321569.128,-94.238,-49.316,-73.242,-157.715
1667321569.132,-65.918,-46.387,-72.266,-129.883
1667321569.136,-19.531,-29.297,-41.504,-77.637
1667321569.140,-43.945,-28.809,-40.527,-91.797
1667321569.157,-83.496,-36.621,-53.223,-113.281
1667321569.161,-49.805,-30.762,-42.480,-84.473
1667321569.165,6.836,-20.996,-23.926,-51.758
1667321569.169,-31.738,-35.156,-40.039,-104.980
1667321569.173,-68.848,-39.062,-50.293,-134.766
1667321569.177,-33.691,-22.949,-28.809,-89.844
1667321569.181,13.672,-22.461,-18.066,-50.781
1667321569.184,-32.227,-43.945,-49.316,-104.980
1667321569.188,-77.637,-48.340,-47.363,-126.953
1667321569.192,-51.758,-43.945,-41.992,-95.703
1667321569.196,-23.438,-36.133,-54.688,-100.586
1667321569.200,-34.180,-37.598,-57.617,-117.676
1667321569.202,-69.336,-30.273,-54.688,-137.207
1667321569.206,-77.637,-20.020,-41.016,-126.953
1667321569.210,-61.523,-30.762,-61.523,-120.117
1667321569.214,-52.734,-29.297,-83.496,-126.953
1667321569.218,-62.012,-14.648,-70.801,-124.023
1667321569.222,-63.477,-0.488,-50.293,-120.605
1667321569.226,-69.824,-17.578,-70.801,-137.695
1667321569.229,-70.801,-34.180,-95.703,-144.531
1667321569.233,-73.242,-29.297,-81.543,-143.555
1667321569.237,-67.871,-6.836,-48.340,-124.512
1667321569.241,-81.055,-26.855,-75.684,-135.254
1667321569.245,-58.105,-38.086,-93.262,-147.949
1667321569.278,-43.457,-16.602,-64.941,-126.953
1667321569.282,-83.984,-21.973,-65.430,-143.066
1667321569.286,-92.773,-29.297,-80.566,-151.855
1667321569.290,-37.109,-20.020,-68.359,-106.445
1667321569.294,-37.598,-25.391,-63.477,-104.492
1667321569.298,-70.312,-29.297,-59.082,-111.816
1667321569.302,-85.449,-32.227,-65.430,-119.141
1667321569.305,-67.871,-38.574,-75.684,-124.512
1667321569.309,-19.043,-23.438,-54.688,-87.402
1667321569.313,-32.715,-9.766,-36.133,-76.172
1667321569.317,-104.004,-32.227,-62.988,-126.465
1667321569.321,-90.332,-41.992,-69.336,-128.418
1667321569.292,-34.180,-32.227,-54.688,-87.891
1667321569.296,-52.734,-32.715,-61.035,-97.656
1667321569.300,-86.914,-34.668,-68.359,-123.535
1667321569.304,-84.961,-31.738,-63.477,-101.074
1667321569.308,-41.016,-21.973,-36.621,-63.477
1667321569.312,-31.250,-22.949,-34.668,-89.355
1667321569.316,-77.148,-26.367,-41.504,-118.652
1667321569.319,-88.867,-21.973,-36.133,-113.770
1667321569.323,-52.734,-25.391,-34.180,-88.867
1667321569.327,-48.340,-40.527,-56.152,-89.355
1667321569.331,-92.285,-45.410,-69.824,-123.535
1667321569.335,-107.910,-45.410,-58.594,-132.812
1667321569.340,-53.711,-37.109,-37.109,-92.285
1667321569.344,-52.734,-48.828,-56.152,-103.027
1667321569.348,-91.309,-52.246,-67.871,-134.277
1667321569.352,-111.328,-38.574,-57.129,-129.395
1667321569.356,-72.754,-27.344,-45.410,-85.938
1667321569.360,-49.316,-37.598,-61.523,-71.289
1667321569.364,-82.520,-43.945,-76.172,-124.023
1667321569.367,-97.656,-32.227,-56.641,-133.789
1667321569.371,-73.730,-31.250,-41.992,-104.980
1667321569.375,-78.613,-49.805,-73.730,-137.695
1667321569.379,-77.148,-45.410,-71.289,-122.559
1667321569.383,-89.844,-42.969,-48.828,-107.910
1667321569.382,-119.141,-55.176,-59.570,-133.789
1667321569.386,-92.285,-53.223,-63.477,-132.812
1667321569.390,-63.965,-46.875,-54.688,-104.004
1667321569.394,-84.961,-42.969,-41.992,-99.121
1667321569.398,-116.699,-49.316,-49.316,-136.719
1667321569.402,-103.027,-53.711,-61.523,-133.789
1667321569.406,-67.871,-45.410,-55.176,-102.051
1667321569.409,-56.641,-28.320,-31.738,-93.750
1667321569.413,-81.543,-26.367,-24.902,-94.238
1667321569.417,-134.277,-59.570,-65.430,-125.000
1667321569.421,-83.984,-53.223,-63.477,-141.113
1667321569.425,-60.059,-43.945,-49.316,-145.996
1667321569.495,-107.422,-51.758,-63.965,-176.758
1667321569.499,-98.633,-47.363,-64.941,-166.992
1667321569.503,-58.594,-36.621,-49.316,-128.418
1667321569.507,-51.270,-33.203,-46.875,-123.535
1667321569.511,-93.262,-39.062,-58.594,-146.973
1667321569.515,-105.957,-34.668,-55.664,-143.066
1667321569.519,-65.918,-30.762,-44.922,-117.676
1667321569.522,-43.457,-31.250,-42.969,-112.793
1667321569.526,-81.543,-35.645,-63.477,-145.020
1667321569.530,-99.609,-32.715,-62.500,-167.480
1667321569.534,-73.730,-28.809,-38.086,-137.207
1667321569.538,-44.922,-36.133,-41.504,-111.328
1667321569.495,-76.172,-39.551,-62.012,-134.766
1667321569.499,-116.211,-37.109,-60.059,-148.438
1667321569.503,-71.289,-30.762,-52.734,-139.160
1667321569.507,-29.785,-23.438,-53.711,-113.281
1667321569.511,-42.969,-17.578,-43.945,-102.051
1667321569.515,-72.754,-22.461,-43.457,-155.273
1667321569.519,-75.195,-28.320,-48.340,-157.715
1667321569.522,-69.336,-36.621,-63.477,-130.859
1667321569.526,-64.941,-37.109,-65.918,-138.184
1667321569.530,-65.918,-24.902,-46.387,-133.301
1667321569.534,-84.473,-23.438,-40.527,-125.488
1667321569.538,-86.426,-31.738,-52.734,-109.863
1667321569.532,-58.105,-26.855,-48.828,-107.422
1667321569.536,-71.289,-20.508,-31.250,-122.559
1667321569.540,-74.219,-8.301,-13.672,-101.074
1667321569.544,-67.383,-25.391,-34.180,-111.328
1667321569.548,-65.918,-38.574,-47.852,-112.305
1667321569.552,-49.805,-18.555,-14.160,-76.660
1667321569.556,-92.285,-23.438,-25.879,-100.586
1667321569.559,-112.305,-38.574,-58.105,-149.414
1667321569.563,-61.035,-25.879,-47.363,-137.207
1667321569.567,-52.246,-14.648,-32.227,-119.629
1667321569.571,-48.340,0.488,2.930,-83.008
1667321569.575,-69.336,-13.672,-11.719,-93.750
1667321569.562,-84.961,-39.062,-50.781,-138.184
1667321569.566,-47.852,-20.508,-28.320,-106.445
1667321569.570,-65.430,-17.090,-27.344,-125.977
1667321569.574,-101.562,-26.367,-36.621,-150.391
1667321569.578,-57.129,-14.160,-20.020,-96.680
1667321569.582,-22.461,-5.371,-9.277,-72.754
1667321569.586,-57.617,-7.324,-16.602,-108.398
1667321569.589,-105.957,-18.066,-39.062,-142.090
1667321569.593,-83.496,-19.531,-36.133,-127.441
1667321569.597,-2.930,5.859,0.977,-65.918
1667321569.601,-27.832,-5.371,-21.973,-82.520
1667321569.605,-61.523,-17.578,-35.156,-120.117
1667321569.640,-51.758,-15.625,-23.926,-106.934
1667321569.644,-22.949,-15.137,-21.973,-82.520
1667321569.648,-10.742,-9.766,-24.414,-85.449
1667321569.652,-36.133,-0.488,-21.973,-87.891
1667321569.656,-44.922,-2.441,-19.043,-109.375
1667321569.660,-8.301,-2.930,-20.996,-117.188
1667321569.664,16.113,0.488,-18.066,-78.613
1667321569.667,-19.531,-7.324,-26.367,-107.910
1667321569.671,-46.387,-9.766,-25.391,-131.348
1667321569.675,4.395,-1.953,-9.277,-84.473
1667321569.679,19.531,-13.184,-27.344,-87.402
1667321569.683,5.859,-10.742,-19.531,-104.004
1667321569.667,-15.137,-9.277,-13.184,-107.910
1667321569.671,1.953,-14.160,-23.926,-114.746
1667321569.675,29.785,-7.812,-27.832,-101.074
1667321569.679,20.996,-7.812,-10.742,-78.125
1667321569.683,16.602,-2.930,10.742,-87.891
1667321569.687,18.066,-8.789,1.953,-86.426
1667321569.691,29.297,-19.043,-18.066,-74.707
1667321569.694,39.551,-7.324,-16.602,-76.172
1667321569.698,23.438,3.418,-10.254,-87.402
1667321569.702,-3.418,-15.625,-38.086,-139.648
1667321569.706,18.555,-20.020,-45.898,-136.719
1667321569.710,49.805,-7.324,-29.785,-105.957
1667321569.714,67.871,14.160,1.465,-73.730
1667321569.718,31.250,-4.883,-14.160,-92.773
1667321569.722,0.000,-41.992,-57.617,-142.090
1667321569.726,51.270,-24.902,-36.621,-106.445
1667321569.730,54.688,-13.672,-11.230,-83.008
1667321569.734,14.160,-24.902,-16.602,-108.887
1667321569.738,26.855,-22.949,-17.090,-109.375
1667321569.741,62.500,-19.043,-6.836,-79.102
1667321569.745,49.316,-15.625,2.441,-63.477
1667321569.749,-6.348,-29.297,-22.949,-106.934
1667321569.753,-8.301,-31.738,-34.668,-124.023
1667321569.757,29.297,-22.949,-20.508,-102.051
1667321569.757,41.016,-20.508,-12.695,-82.520
1667321569.761,-0.977,-24.414,-23.438,-122.070
1667321569.765,-21.973,-31.250,-25.879,-141.113
1667321569.769,12.207,-28.320,-20.996,-109.863
1667321569.773,31.738,-26.367,-20.508,-101.074
1667321569.777,11.230,-21.973,-9.277,-103.027
1667321569.781,-26.855,-25.391,-13.672,-117.188
1667321569.784,13.672,-18.066,-1.465,-81.543
1667321569.788,54.199,-18.555,3.418,-43.457
1667321569.792,-15.137,-44.434,-38.086,-121.094
1667321569.796,-51.758,-39.551,-42.969,-175.781
1667321569.800,-14.160,-25.391,-22.949,-139.160
1667321569.804,10.254,-26.855,-31.250,-111.328
1667321569.808,5.859,-25.391,-30.273,-104.492
1667321569.812,-25.879,-25.391,-26.367,-113.770
1667321569.816,-33.203,-32.227,-35.156,-123.047
1667321569.820,0.000,-34.180,-36.621,-116.211
1667321569.824,18.066,-30.762,-27.832,-99.121
1667321569.828,-20.508,-33.691,-31.738,-108.887
1667321569.831,-44.922,-37.109,-38.574,-130.371
1667321569.835,-16.602,-40.039,-47.852,-144.531
1667321569.839,10.742,-37.109,-43.945,-121.094
1667321569.843,-0.488,-28.320,-21.973,-112.793
1667321569.847,-42.480,-37.109,-29.297,-135.742
1667321569.847,-44.922,-48.828,-52.246,-143.555
1667321569.851,9.277,-38.086,-38.574,-115.723
1667321569.855,20.020,-27.344,-21.973,-104.980
1667321569.859,-25.879,-36.133,-28.809,-138.672
1667321569.863,-39.062,-45.898,-40.527,-152.832
1667321569.867,0.977,-40.039,-36.133,-125.488
1667321569.871,33.691,-20.996,-7.812,-79.102
1667321569.874,-6.836,-24.902,-4.395,-81.543
1667321569.878,-77.637,-61.523,-58.594,-158.691
1667321569.882,-20.996,-52.734,-60.059,-143.066
1667321569.886,10.254,-36.621,-35.156,-112.305
1667321569.890,-49.805,-46.875,-43.457,-142.578
1667321569.922,-78.613,-49.805,-46.875,-155.273
1667321569.926,-45.410,-48.828,-43.945,-142.578
1667321569.930,-8.301,-43.457,-38.086,-114.258
1667321569.934,-30.273,-43.945,-40.527,-132.324
1667321569.938,-59.082,-44.922,-39.551,-149.902
1667321569.942,-27.832,-38.574,-20.020,-111.816
1667321569.946,34.668,-27.344,4.395,-60.059
1667321569.949,-17.090,-53.711,-36.621,-116.699
1667321569.953,-60.059,-54.199,-48.340,-159.668
1667321569.957,-39.551,-44.434,-33.203,-141.602
1667321569.961,-32.227,-57.617,-47.852,-143.555
1667321569.965,-30.273,-56.152,-51.758,-150.879
1667321569.938,-65.918,-50.781,-45.410,-168.457
1667321569.942,-63.477,-45.898,-31.250,-161.133
1667321569.946,-36.133,-47.363,-33.691,-144.043
1667321569.950,-26.367,-42.480,-36.621,-135.742
1667321569.954,-30.762,-38.574,-26.855,-135.742
1667321569.958,-58.594,-44.434,-22.949,-137.695
1667321569.962,-44.922,-52.734,-33.203,-113.770
1667321569.965,-4.883,-47.363,-31.250,-92.773
1667321569.969,-26.855,-46.875,-25.879,-97.168
1667321569.973,-51.758,-46.875,-18.066,-99.121
1667321569.977,-66.406,-61.523,-40.039,-118.652
1667321569.981,-48.340,-68.359,-54.199,-120.117
1667321569.999,-27.832,-50.293,-32.715,-99.121
1667321570.003,-24.902,-29.297,-6.348,-80.078
1667321570.007,-56.641,-45.410,-28.809,-97.168
1667321570.011,-62.012,-62.500,-50.781,-112.793
1667321570.015,-20.996,-46.875,-29.297,-90.820
1667321570.019,-20.508,-30.762,-6.836,-73.730
1667321570.023,-83.496,-60.547,-45.410,-125.977
1667321570.026,-84.473,-72.754,-67.383,-150.391
1667321570.030,-35.645,-56.641,-40.527,-103.516
1667321570.034,-47.363,-56.152,-35.156,-100.098
1667321570.038,-93.750,-69.336,-61.035,-146.973
1667321570.042,-74.219,-71.289,-62.500,-138.672
1667321570.042,-26.855,-57.617,-40.039,-98.145
1667321570.046,-42.969,-49.805,-38.574,-107.422
1667321570.050,-80.566,-55.664,-48.340,-135.254
1667321570.054,-60.547,-59.082,-42.480,-125.977
1667321570.058,-12.695,-48.828,-33.203,-91.309
1667321570.062,-22.949,-47.852,-33.691,-91.797
1667321570.066,-64.453,-45.898,-31.738,-104.492
1667321570.069,-76.172,-51.758,-40.527,-108.398
1667321570.073,-31.250,-44.922,-36.133,-92.285
1667321570.077,-6.348,-38.574,-24.414,-76.172
1667321570.081,-87.402,-76.172,-73.730,-146.973
1667321570.085,-100.098,-62.988,-73.730,-161.621
1667321570.089,-49.316,-45.898,-42.969,-107.422
1667321570.093,-46.387,-61.523,-60.547,-120.117
1667321570.097,-63.477,-57.617,-72.754,-145.996
1667321570.101,-67.383,-48.340,-62.012,-127.441
1667321570.105,-56.152,-52.246,-47.852,-111.328
1667321570.109,-45.410,-56.152,-35.156,-104.980
1667321570.113,-60.059,-56.152,-39.551,-111.816
1667321570.116,-96.680,-55.664,-41.504,-139.648
1667321570.120,-84.473,-46.387,-21.973,-129.883
1667321570.124,-74.707,-66.895,-38.574,-138.184
1667321570.128,-80.078,-69.824,-46.875,-136.230
1667321570.132,-100.586,-55.176,-28.809,-152.344
1667321570.132,-131.348,-64.941,-39.551,-175.293
1667321570.136,-98.145,-59.570,-39.551,-151.855
1667321570.140,-44.922,-42.480,-15.625,-117.676
1667321570.144,-74.707,-46.387,-25.879,-136.230
1667321570.148,-123.047,-57.129,-48.340,-163.086
1667321570.152,-81.055,-51.758,-36.133,-128.418
1667321570.156,-39.551,-46.875,-25.879,-107.910
1667321570.159,-49.316,-38.574,-18.555,-106.445
1667321570.163,-82.520,-42.969,-18.066,-107.422
1667321570.167,-107.910,-65.430,-56.641,-158.691
1667321570.171,-73.730,-59.570,-55.176,-155.273
1667321570.175,-58.105,-43.457,-33.203,-124.512
1667321570.195,-97.168,-47.363,-43.457,-149.902
1667321570.199,-104.980,-51.270,-42.969,-149.902
1667321570.203,-64.941,-45.898,-36.133,-123.535
1667321570.207,-46.875,-26.855,-27.832,-102.539
1667321570.211,-82.031,-20.020,-31.250,-117.676
1667321570.215,-107.422,-40.527,-45.410,-146.484
1667321570.219,-68.848,-37.109,-31.250,-113.281
1667321570.222,-39.062,-24.902,-13.184,-69.336
1667321570.226,-85.938,-40.039,-28.320,-114.258
1667321570.230,-119.629,-36.621,-38.574,-159.180
1667321570.234,-88.867,-31.738,-35.156,-138.184
1667321570.238,-56.641,-27.344,-38.086,-118.652
1667321570.239,-80.078,-20.996,-36.621,-122.559
1667321570.243,-127.930,-17.578,-37.598,-148.438
1667321570.247,-84.473,-22.461,-24.414,-121.582
1667321570.251,-53.223,-30.762,-34.180,-107.910
1667321570.255,-64.941,-11.719,-28.809,-114.258
1667321570.259,-70.801,-21.484,-8.789,-114.746
1667321570.263,-78.125,-30.273,-20.020,-115.234
1667321570.266,-72.266,-31.738,-29.785,-101.074
1667321570.270,-67.871,-39.551,-39.062,-113.281
1667321570.274,-92.773,-33.203,-39.551,-143.555
1667321570.278,-82.031,-10.742,-1.465,-114.746
1667321570.282,-74.219,-20.996,-17.578,-104.004
1667321570.282,-96.680,-21.973,-62.500,-150.391,0
1667321570.286,-120.605,-0.488,-42.480,-140.625,0
1667321570.290,-129.883,8.789,-33.691,-153.320,0
1667321570.294,-113.770,-40.527,-39.551,-162.109,0
1667321570.298,-76.660,-68.359,-30.273,-115.723,0
1667321570.302,-37.109,-30.762,-21.484,-95.703,0
1667321570.306,-81.055,-28.809,-27.832,-125.488,0
1667321570.309,-117.676,-49.805,-38.574,-156.738,0
1667321570.313,-142.090,-17.090,-25.391,-152.344,0
1667321570.317,-154.785,32.715,-33.691,-125.977,0
1667321570.321,-107.910,-18.066,-32.227,-120.605,0
1667321570.325,-129.395,-89.355,-33.691,-189.941,0
1667321570.312,-143.555,-2.930,-67.871,-220.703,0
1667321570.316,-34.180,15.137,-52.246,-103.516,0
1667321570.320,-91.309,15.625,-39.551,-124.512,0
1667321570.324,-246.094,5.371,-76.172,-252.441,0
1667321570.328,-127.930,-120.605,-32.715,-192.871,0
1667321570.332,17.578,-54.688,-19.043,-213.379,0
1667321570.336,-152.344,44.434,-76.172,-311.035,0
1667321570.339,-103.516,-32.227,-54.199,-165.039,0
1667321570.343,-97.168,-70.312,-4.395,-227.051,0
1667321570.347,-124.023,10.254,-28.320,-229.980,0
1667321570.351,-314.941,82.031,-69.336,-456.055,0
1667321570.355,-153.809,-41.504,-145.996,-335.449,0
1667321570.389,-95.215,-27.344,-61.523,6.348,0
1667321570.393,-189.941,41.016,-65.918,-135.742,0
1667321570.397,85.449,6.836,-102.051,-84.961,0
1667321570.401,-263.672,-12.695,-52.734,-327.148,0
1667321570.405,-243.652,-64.453,-40.527,-356.934,0
1667321570.409,25.391,-4.883,-62.988,-152.344,0
1667321570.413,-64.941,-53.223,-57.129,1.465,0
1667321570.416,42.969,-71.289,19.531,-162.598,0
1667321570.420,-96.191,5.371,28.809,-361.328,0
1667321570.424,-228.516,-47.363,-52.734,-368.652,0
1667321570.428,-207.031,58.594,-80.566,-323.242,0
1667321570.432,-279.297,-57.129,31.738,-184.570,0
1667321570.417,-169.434,-73.730,-23.926,-283.203,0
1667321570.421,-17.578,-30.273,-167.969,-248.535,0
1667321570.425,42.969,-85.449,-112.793,13.672,0
1667321570.429,-62.012,-28.809,36.621,-158.203,0
1667321570.433,-165.527,68.848,-17.578,-477.539,0
1667321570.437,-70.801,-91.309,-84.961,-408.691,0
1667321570.441,-18.555,-62.012,-84.961,-197.754,0
1667321570.444,62.500,-32.715,-65.430,-95.703,0
1667321570.448,34.668,-59.082,-78.125,-166.016,0
1667321570.452,-73.730,-20.020,-116.699,-265.625,0
1667321570.456,-77.637,-37.598,-92.773,-87.402,0
1667321570.460,-117.676,53.711,-25.879,-147.949,0
1667321570.468,0.488,5.371,26.367,-72.266,0
1667321570.472,39.551,-48.340,-49.805,35.645,0
1667321570.476,15.137,-36.133,-101.562,110.352,0
1667321570.480,63.965,-23.438,-86.914,161.133,0
1667321570.484,-40.527,-20.996,-58.105,-64.941,0
1667321570.488,-141.113,3.418,4.883,-0.977,0
1667321570.492,-7.324,18.066,-44.922,95.215,0
1667321570.495,119.141,-33.691,-61.523,237.793,0
1667321570.499,89.844,-29.297,-25.391,325.684,0
1667321570.503,-74.707,-20.020,-51.758,-23.926,0
1667321570.507,-35.645,-41.992,-52.734,-7.812,0
1667321570.511,95.703,-31.250,-51.758,182.617,0
1667321570.507,65.430,-3.418,-83.496,196.777,0
1667321570.511,31.250,-14.160,-54.199,192.383,0
1667321570.515,45.410,-21.484,-15.137,111.816,0
1667321570.519,37.109,3.906,-48.828,144.043,0
1667321570.523,83.496,-9.277,-38.574,198.242,0
1667321570.527,42.969,-8.301,-19.043,170.898,0
1667321570.531,-35.156,-4.883,-33.203,150.391,0
1667321570.534,49.316,0.488,-21.484,157.227,0
1667321570.538,148.926,9.277,-9.277,187.500,0
1667321570.542,20.508,-8.789,-34.180,140.625,0
1667321570.546,-84.473,-7.324,-42.969,87.402,0
1667321570.550,-61.035,-1.953,-31.250,103.516,0
1667321570.554,-16.113,0.000,-27.344,123.535,0
1667321570.558,-12.207,-1.953,-28.809,114.258,0
1667321570.562,-24.902,-0.977,-14.648,101.074,0
1667321570.566,-14.648,6.348,-8.301,102.539,0
1667321570.570,6.836,1.465,-23.438,96.191,0
1667321570.574,22.461,1.465,-16.602,96.191,0
1667321570.578,2.441,2.930,6.836,94.727,0
1667321570.581,-7.324,-8.301,20.508,100.586,0
1667321570.585,-26.855,-25.391,-20.996,59.570,0
1667321570.589,-18.555,-12.207,-31.738,37.598,0
1667321570.593,-0.977,8.301,-4.883,52.246,0
1667321570.597,-32.715,5.371,-14.160,33.203,0
1667321570.597,-50.293,-6.836,-31.250,20.020,0
1667321570.601,-17.090,-0.488,-19.531,43.945,0
1667321570.605,-5.371,6.836,-4.395,50.293,0
1667321570.609,-42.480,-0.488,-11.230,22.949,0
1667321570.613,-30.762,-0.488,-6.348,35.645,0
1667321570.617,-2.441,-11.719,-7.324,52.246,0
1667321570.621,21.484,-1.953,5.371,74.707,0
1667321570.624,0.977,5.371,14.648,70.801,0
1667321570.628,-66.406,-25.879,-29.297,4.883,0
1667321570.632,-29.785,-20.020,-23.438,31.250,0
1667321570.636,8.301,2.930,-0.488,73.242,0
1667321570.640,-46.387,-12.207,-18.066,31.250,0
1667321570.644,-83.008,-25.391,-28.809,5.859,0
1667321570.648,-36.621,-21.484,-11.230,47.852,0
1667321570.652,5.859,-21.973,-9.277,64.941,0
1667321570.656,-21.973,-24.414,-17.578,30.273,0
1667321570.660,-69.336,-24.414,-19.531,6.836,0
1667321570.664,-41.992,-23.438,-17.578,17.090,0
1667321570.668,20.020,-10.742,11.230,71.777,0
1667321570.671,-20.996,-23.926,-15.625,25.879,0
1667321570.675,-63.477,-30.762,-32.715,-21.973,0
1667321570.679,-42.480,-21.484,-11.719,0.488,0
1667321570.683,-18.066,-25.391,-11.230,13.672,0
1667321570.687,-28.320,-39.062,-19.531,3.906,0
1667321570.687,-41.504,-31.738,-6.836,-20.020,0
1667321570.691,-54.688,-33.691,-7.324,-46.875,0
1667321570.695,-43.457,-44.434,-23.438,-46.875,0
1667321570.699,-19.531,-35.156,-19.531,-36.133,0
1667321570.703,-51.758,-30.273,-8.789,-63.965,0
1667321570.707,-65.430,-19.043,0.000,-63.965,0
1667321570.711,-53.223,-21.484,-13.184,-73.730,0
1667321570.714,-49.805,-32.715,-25.391,-93.750,0
1667321570.718,-78.613,-34.180,-32.715,-125.488,0
1667321570.722,-106.445,-24.414,-29.297,-159.180,0
1667321570.726,-116.699,-32.227,-34.668,-173.828,0
1667321570.730,-95.703,-26.367,-33.203,-165.039,0
1667321570.749,-86.914,-4.883,-10.254,-145.020,0
1667321570.753,-149.902,-19.531,-14.160,-179.199,0
1667321570.757,-182.617,-21.973,-21.484,-212.402,0
1667321570.761,-172.852,-21.973,-38.086,-227.539,0
1667321570.765,-174.316,-21.973,-34.180,-229.492,0
1667321570.769,-209.961,-19.043,-22.461,-250.488,0
1667321570.773,-249.023,-23.926,-36.621,-283.691,0
1667321570.776,-234.375,-26.855,-42.969,-288.574,0
1667321570.780,-211.426,-26.855,-40.039,-302.246,0
1667321570.784,-235.352,-32.715,-41.016,-322.754,0
1667321570.788,-251.953,-40.039,-43.945,-329.102,0
1667321570.792,-225.098,-42.480,-45.898,-312.012,0
1667321570.792,-190.918,-36.133,-37.109,-276.855,0
1667321570.796,-190.430,-29.785,-24.902,-255.371,0
1667321570.800,-231.445,-37.598,-40.527,-288.574,0
1667321570.804,-217.773,-38.574,-43.945,-282.227,0
1667321570.808,-139.648,-28.809,-30.273,-218.750,0
1667321570.812,-112.305,-41.504,-19.043,-193.848,0
1667321570.816,-150.391,-56.152,-31.738,-225.098,0
1667321570.819,-154.785,-53.223,-37.598,-221.191,0
1667321570.823,-89.355,-38.086,-21.973,-161.621,0
1667321570.827,-70.312,-38.574,-23.438,-127.930,0
1667321570.831,-123.047,-62.988,-53.223,-179.688,0
1667321570.835,-125.488,-62.988,-53.711,-183.594,0
1667321570.839,-64.941,-49.316,-41.504,-134.277,0
1667321570.843,-28.809,-54.688,-43.457,-119.141,0
1667321570.847,-39.551,-59.570,-44.922,-120.117,0
1667321570.851,-48.340,-60.059,-40.039,-117.188,0
1667321570.855,-34.668,-64.453,-41.016,-98.633,0
1667321570.859,7.812,-64.941,-42.480,-65.430,0
1667321570.863,5.371,-62.500,-40.527,-68.359,0
1667321570.866,-28.320,-56.152,-35.156,-78.613,0
1667321570.870,-8.789,-52.734,-33.691,-51.758,0
1667321570.874,8.301,-68.848,-57.617,-59.570,0
1667321570.878,15.625,-63.477,-58.594,-51.270,0
1667321570.882,1.465,-57.617,-42.969,-45.898,0
1667321570.882,-3.418,-62.012,-38.574,-50.293,0
1667321570.886,24.902,-61.035,-42.969,-37.109,0
1667321570.890,36.621,-61.035,-42.969,-35.156,0
1667321570.894,34.668,-49.805,-25.879,-29.297,0
1667321570.898,1.953,-55.176,-34.180,-36.621,0
1667321570.902,16.113,-59.082,-45.898,-32.715,0
1667321570.906,61.523,-49.805,-31.738,-16.602,0
1667321570.909,62.012,-39.551,-9.277,-0.488,0
1667321570.913,41.992,-35.156,0.488,2.930,0
1667321570.917,10.742,-54.688,-40.039,-41.992,0
1667321570.921,35.645,-58.105,-46.875,-31.738,0
1667321570.925,59.082,-40.527,-22.461,-9.766,0
1667321570.943,8.789,-44.434,-30.762,-48.828,0
1667321570.947,0.000,-48.828,-38.086,-53.223,0
1667321570.951,44.922,-39.551,-28.809,-20.996,0
1667321570.955,69.824,-30.273,-15.137,2.441,0
1667321570.959,27.344,-33.203,-21.973,-32.227,0
1667321570.963,7.324,-31.738,-16.602,-43.457,0
1667321570.967,42.480,-27.832,-7.324,-12.695,0
1667321570.970,83.008,-15.625,7.812,16.602,0
1667321570.974,23.438,-30.273,-15.625,-28.809,0
1667321570.978,-17.090,-38.574,-25.879,-57.129,0
1667321570.982,32.227,-22.949,-9.277,-21.484,0
1667321570.986,62.988,-25.391,-11.230,-12.695,0
1667321570.972,40.527,-28.320,-11.230,-38.086,0
1667321570.976,-1.465,-24.414,-11.719,-61.035,0
1667321570.980,12.695,-24.902,-9.277,-46.875,0
1667321570.984,46.875,-25.879,-8.789,-24.902,0
1667321570.988,42.969,-20.996,-6.348,-28.809,0
1667321570.992,26.367,-15.137,11.719,-20.996,0
1667321570.996,32.227,-13.672,15.137,-11.719,0
1667321570.999,36.621,-16.602,-1.953,-40.527,0
1667321571.003,29.785,-21.484,-7.812,-48.828,0
1667321571.007,3.906,-25.879,-4.883,-61.035,0
1667321571.011,-11.230,-10.254,17.090,-48.340,0
1667321571.015,13.672,-18.066,10.742,-27.344,0
1667321571.033,17.578,-34.180,-14.160,-45.898,0
1667321571.037,7.812,-18.066,0.977,-50.781,0
1667321571.041,-14.160,-16.602,-0.488,-70.312,0
1667321571.045,10.742,-21.973,-5.859,-57.129,0
1667321571.049,44.434,-21.484,0.488,-41.016,0
1667321571.053,41.992,-14.160,14.648,-31.738,0
1667321571.057,27.344,-5.859,24.414,-28.320,0
1667321571.060,-15.137,-26.855,-18.066,-80.078,0
1667321571.064,6.348,-27.344,-28.809,-77.148,0
1667321571.068,35.156,-5.371,-3.418,-51.270,0
1667321571.072,-8.301,-4.883,-7.324,-78.125,0
1667321571.076,-11.719,-14.160,-9.277,-81.543,0
1667321571.064,31.250,-13.184,-2.441,-55.176,0
1667321571.068,48.340,-15.137,-0.488,-44.922,0
1667321571.072,7.324,-20.508,-6.348,-72.754,0
1667321571.076,-11.230,-14.160,0.488,-74.219,0
1667321571.080,5.859,-16.113,-6.348,-67.383,0
1667321571.084,41.992,-6.836,3.906,-40.039,0
1667321571.088,10.254,-8.301,8.301,-36.621,0
1667321571.091,-52.246,-24.414,-22.949,-85.938,0
1667321571.095,-25.391,-19.531,-22.461,-80.078,0
1667321571.099,18.066,-9.277,-0.977,-31.250,0
1667321571.103,-5.371,-14.160,-13.184,-42.480,0
1667321571.107,-55.664,-24.902,-31.738,-108.887,0
1667321571.154,-47.363,-18.066,-24.902,-111.816,0
1667321571.158,15.625,-3.906,-6.836,-48.828,0
1667321571.162,-1.953,-9.766,-22.949,-69.336,0
1667321571.166,-54.199,-28.320,-28.320,-115.234,0
1667321571.170,-56.641,-27.832,-18.066,-106.934,0
1667321571.174,24.902,-6.348,11.719,-33.691,0
1667321571.178,55.176,-8.789,-2.441,-43.945,0
1667321571.181,-15.137,-22.949,-25.391,-125.000,0
1667321571.185,-41.016,-24.902,-7.812,-130.371,0
1667321571.189,-20.996,-32.715,-20.508,-116.211,0
1667321571.193,-21.484,-20.508,-28.320,-132.324,0
1667321571.197,-55.176,-19.043,-16.113,-139.160,0
1667321571.157,-61.523,-28.809,-16.113,-134.766,0
1667321571.161,-44.922,-11.719,-29.297,-151.855,0
1667321571.165,-21.484,-30.273,-26.367,-118.164,0
1667321571.169,-9.277,-28.320,-19.043,-112.793,0
1667321571.173,-57.129,-20.508,-15.625,-150.879,0
1667321571.177,-59.082,-32.715,-10.742,-128.906,0
1667321571.181,-24.902,-12.695,-14.648,-104.492,0
1667321571.184,-35.156,-29.785,-18.066,-100.098,0
1667321571.188,-73.730,-4.395,9.277,-129.883,0
1667321571.192,-152.832,19.043,-21.484,-202.148,0
1667321571.196,-111.816,-14.648,-5.859,-183.594,0
1667321571.200,-26.367,0.000,17.090,-129.395,0
1667321571.214,-56.641,11.230,-1.953,-109.375,0
1667321571.218,-134.277,-9.766,-36.621,-156.250,0
1667321571.222,-133.301,-11.719,-36.133,-177.246,0
1667321571.226,-94.238,-16.113,-9.766,-141.113,0
1667321571.230,-161.133,75.195,0.000,-177.734,0
1667321571.234,-315.918,125.000,-6.836,-383.789,0
1667321571.238,-293.945,-42.969,-40.039,-427.734,0
1667321571.241,-194.336,-69.824,-23.926,-228.516,0
1667321571.245,-267.578,26.367,-42.480,-264.160,0
1667321571.249,-300.293,-28.809,-49.805,-332.031,0
1667321571.253,-246.582,0.977,-45.898,-273.926,0
1667321571.257,-193.359,-15.625,-63.477,-214.355,0
1667321571.257,-227.539,-22.949,-41.016,-284.668,0
1667321571.261,-304.199,-9.277,-37.598,-332.031,0
1667321571.265,-262.207,-53.223,-18.066,-329.102,0
1667321571.269,-200.684,-41.504,-11.230,-296.875,0
1667321571.273,-177.734,-26.855,-46.387,-198.730,0
1667321571.277,-196.289,-43.945,-31.738,-209.961,0
1667321571.281,-226.562,-22.461,-36.621,-271.484,0
1667321571.284,-187.500,-9.766,-25.879,-199.219,0
1667321571.288,-105.957,-35.156,-0.488,-142.090,0
1667321571.292,-151.855,-46.875,-18.555,-239.258,0
1667321571.296,-170.898,-34.180,-48.828,-223.145,0
1667321571.300,-129.883,-31.738,-30.762,-166.992,0
1667321571.304,-107.910,-46.875,-38.086,-163.574,0
1667321571.308,-74.219,-50.293,-46.387,-129.883,0
1667321571.312,-85.449,-39.551,-24.414,-125.000,0
1667321571.316,-77.637,-36.133,-36.621,-129.395,0
1667321571.320,-24.414,-32.715,-46.875,-82.031,0
1667321571.324,16.602,-27.344,-39.551,-41.016,0
1667321571.328,3.906,-29.297,-40.039,-47.363,0
1667321571.331,-12.695,-28.320,-32.715,-31.738,0
1667321571.335,-8.301,-44.922,-56.641,-28.320,0
1667321571.339,30.762,-40.527,-63.965,-11.230,0
1667321571.343,42.480,-34.668,-45.410,4.395,0
1667321571.347,18.066,-46.875,-54.199,-5.859,0
1667321571.347,33.203,-44.434,-62.988,0.488,0
1667321571.351,63.965,-35.645,-50.293,29.297,0
1667321571.355,62.988,-32.227,-44.434,41.504,0
1667321571.359,34.668,-38.574,-50.293,18.555,0
1667321571.363,41.504,-38.574,-51.270,13.672,0
1667321571.367,72.266,-38.086,-56.152,43.945,0
1667321571.371,101.562,-21.973,-35.156,72.266,0
1667321571.374,77.637,-22.461,-20.020,52.246,0
1667321571.378,12.207,-48.340,-68.359,-6.348,0
1667321571.382,41.992,-41.992,-70.801,9.277,0
1667321571.386,87.891,-33.203,-31.738,51.270,0
1667321571.390,54.199,-38.086,-34.180,22.461,0
1667321571.407,14.160,-38.574,-48.828,-11.230,0
1667321571.411,37.109,-41.016,-51.270,3.418,0
1667321571.415,82.031,-44.434,-48.828,28.320,0
1667321571.419,56.152,-50.293,-49.316,4.883,0
1667321571.423,3.906,-55.176,-55.664,-29.297,0
1667321571.427,17.578,-44.434,-47.363,-7.324,0
1667321571.431,69.824,-26.367,-21.484,49.805,0
1667321571.434,32.227,-46.387,-45.410,6.348,0
1667321571.438,-7.324,-52.734,-50.293,-24.414,0
1667321571.442,0.488,-44.434,-36.621,-6.348,0
1667321571.446,20.020,-44.922,-49.316,-4.883,0
1667321571.450,38.574,-43.945,-48.340,-0.977,0
1667321571.437,13.184,-42.480,-36.133,-17.578,0
1667321571.441,-1.465,-31.738,-26.855,-20.996,0
1667321571.445,11.719,-34.180,-29.785,-4.883,0
1667321571.449,27.344,-35.645,-32.227,6.836,0
1667321571.453,14.160,-28.320,-30.762,-22.949,0
1667321571.457,-12.207,-27.832,-23.438,-32.715,0
1667321571.461,6.348,-29.297,-29.785,-11.719,0
1667321571.464,8.301,-41.504,-52.246,-29.785,0
1667321571.468,1.465,-38.086,-40.527,-37.598,0
1667321571.472,-10.254,-28.320,-29.785,-36.133,0
1667321571.476,-36.621,-45.410,-56.641,-68.848,0
1667321571.480,-17.578,-46.875,-65.918,-80.566,0
1667321571.499,1.953,-32.227,-42.969,-58.594,0
1667321571.503,-26.367,-28.809,-38.086,-81.543,0
1667321571.507,-47.363,-35.156,-52.246,-116.699,0
1667321571.511,-11.719,-37.109,-46.875,-88.379,0
1667321571.515,20.996,-28.320,-29.785,-64.941,0
1667321571.519,-9.277,-28.809,-24.902,-89.355,0
1667321571.523,-62.500,-47.363,-46.387,-129.883,0
1667321571.526,-55.664,-53.223,-60.059,-130.371,0
1667321571.530,0.977,-32.715,-32.715,-82.520,0
1667321571.534,4.883,-27.832,-13.184,-67.871,0
1667321571.538,-74.707,-51.758,-52.246,-130.371,0
1667321571.542,-65.918,-49.316,-57.129,-135.254,0
1667321571.542,-0.488,-37.598,-35.156,-90.820,0
1667321571.546,-6.836,-44.434,-38.086,-97.168,0
1667321571.550,-54.199,-49.316,-46.875,-130.371,0
1667321571.554,-48.340,-40.039,-41.016,-116.699,0
1667321571.558,5.371,-30.273,-25.879,-80.566,0
1667321571.562,10.742,-28.809,-13.672,-71.289,0
1667321571.566,-30.762,-39.062,-10.742,-92.773,0
1667321571.569,-58.105,-49.316,-28.809,-122.559,0
1667321571.573,-12.695,-37.109,-23.926,-88.379,0
1667321571.577,18.555,-28.320,-12.695,-55.664,0
1667321571.581,-50.781,-46.875,-48.828,-133.301,0
1667321571.585,-66.895,-44.434,-49.805,-162.598,0
1667321571.603,-41.992,-43.945,-42.969,-134.277,0
1667321571.607,-33.691,-52.246,-53.223,-127.930,0
1667321571.611,-46.387,-56.152,-49.805,-141.113,0
1667321571.615,-68.848,-53.223,-44.922,-153.320,0
1667321571.619,-50.293,-50.781,-41.992,-133.301,0
1667321571.623,-11.719,-49.316,-41.992,-100.586,0
1667321571.627,-16.113,-48.340,-46.875,-104.492,0
1667321571.630,-53.711,-45.898,-50.293,-134.277,0
1667321571.634,-42.480,-37.109,-30.273,-105.957,0
1667321571.638,-27.344,-52.734,-57.129,-112.793,0
1667321571.642,-19.531,-43.945,-57.617,-125.977,0
1667321571.646,-56.152,-38.086,-41.016,-136.719,0
1667321571.632,-84.473,-54.688,-51.758,-144.043,0
1667321571.636,-47.363,-52.246,-51.758,-119.629,0
1667321571.640,-21.973,-41.016,-44.434,-116.699,0
1667321571.644,-49.805,-45.898,-37.109,-123.047,0
1667321571.648,-80.078,-51.270,-41.992,-137.207,0
1667321571.652,-49.805,-41.992,-41.016,-121.094,0
1667321571.656,-20.996,-43.945,-45.898,-98.145,0
1667321571.659,-26.367,-40.527,-34.668,-93.262,0
1667321571.663,-75.684,-47.852,-46.875,-131.836,0
1667321571.667,-95.215,-62.500,-69.824,-155.273,0
1667321571.671,-46.387,-56.152,-55.664,-120.117,0
1667321571.675,-4.395,-34.668,-15.625,-69.824,0
1667321571.679,-63.965,-49.316,-29.785,-112.305,0
1667321571.683,-114.258,-68.848,-68.359,-167.969,0
1667321571.687,-48.828,-50.781,-52.246,-125.000,0
1667321571.691,-6.836,-39.062,-31.250,-91.797,0
1667321571.695,-75.684,-64.941,-57.129,-142.090,0
1667321571.699,-106.934,-68.848,-60.059,-160.645,0
1667321571.703,-53.711,-49.805,-38.574,-114.258,0
1667321571.706,-7.324,-42.969,-25.879,-74.219,0
1667321571.710,-62.500,-59.082,-53.711,-131.348,0
1667321571.714,-111.328,-64.453,-68.359,-168.457,0
1667321571.718,-81.055,-56.152,-53.223,-128.906,0
1667321571.722,-42.480,-60.059,-53.711,-115.234,0
1667321571.737,-52.246,-58.105,-53.711,-126.953,0
1667321571.741,-83.008,-56.641,-52.734,-132.812,0
1667321571.745,-57.129,-55.664,-50.293,-113.770,0
1667321571.749,-22.949,-53.711,-55.176,-98.633,0
1667321571.753,-22.461,-41.016,-41.504,-84.961,0
1667321571.757,-63.477,-47.363,-37.109,-114.258,0
1667321571.761,-70.312,-47.852,-35.645,-117.676,0
1667321571.764,-38.086,-48.828,-40.527,-98.145,0
1667321571.768,-53.711,-64.453,-67.871,-120.605,0
1667321571.772,-72.266,-52.246,-59.570,-134.766,0
1667321571.776,-65.430,-36.133,-33.203,-124.023,0
1667321571.780,-60.059,-46.387,-48.828,-120.117,0
1667321571.782,-53.223,-54.688,-60.059,-123.535,0
1667321571.786,-55.664,-46.875,-41.504,-117.676,0
1667321571.790,-82.520,-45.898,-42.969,-132.324,0
1667321571.794,-77.148,-47.852,-56.152,-137.695,0
1667321571.798,-33.203,-41.992,-43.945,-105.957,0
1667321571.802,-12.695,-29.785,-23.438,-83.984,0
1667321571.806,-56.641,-38.086,-34.180,-106.445,0
1667321571.809,-78.613,-42.480,-50.293,-124.512,0
1667321571.813,-42.480,-41.016,-48.340,-113.770,0
1667321571.817,-29.785,-41.504,-44.434,-106.934,0
1667321571.821,-60.547,-42.969,-38.574,-111.816,0
1667321571.825,-94.727,-55.176,-55.664,-142.578,0
1667321571.812,-53.711,-48.340,-58.105,-118.164,0
1667321571.816,-14.648,-35.645,-33.691,-72.266,0
1667321571.820,-56.152,-42.480,-34.668,-110.352,0
1667321571.824,-108.887,-52.246,-56.641,-151.367,0
1667321571.828,-66.406,-41.992,-54.688,-114.258,0
1667321571.832,-4.883,-32.227,-36.133,-71.289,0
1667321571.836,-31.250,-39.551,-28.809,-90.820,0
1667321571.839,-104.980,-57.129,-41.992,-154.297,0
1667321571.843,-87.891,-59.082,-48.340,-143.555,0
1667321571.847,-26.367,-53.223,-29.785,-90.820,0
1667321571.851,-63.477,-70.801,-31.738,-106.445,0
1667321571.855,-118.164,-80.566,-44.434,-152.832,0
1667321571.887,-104.492,-64.453,-34.180,-137.207,0
1667321571.891,-54.688,-62.988,-24.902,-103.027,0
1667321571.895,-45.898,-72.266,-37.598,-127.930,0
1667321571.899,-84.473,-68.848,-42.480,-156.250,0
1667321571.903,-89.844,-58.594,-31.250,-136.719,0
1667321571.907,-47.852,-56.641,-36.133,-105.469,0
1667321571.911,-36.133,-62.500,-43.945,-105.469,0
1667321571.914,-67.383,-65.918,-37.598,-119.141,0
1667321571.918,-83.984,-61.035,-31.738,-122.559,0
1667321571.922,-56.641,-60.059,-31.250,-89.355,0
1667321571.926,-57.617,-74.219,-57.617,-111.816,0
1667321571.930,-76.172,-64.941,-52.246,-128.906,0
1667321571.917,-90.820,-47.363,-31.738,-120.605,0
1667321571.921,-70.801,-49.805,-36.133,-118.652,0
1667321571.925,-45.898,-51.758,-47.852,-112.793,0
1667321571.929,-46.875,-46.875,-46.387,-117.188,0
1667321571.933,-68.848,-42.969,-28.809,-120.117,0
1667321571.937,-81.543,-45.410,-36.621,-126.465,0
1667321571.941,-60.059,-48.340,-46.387,-127.441,0
1667321571.944,-43.457,-50.293,-35.645,-109.863,0
1667321571.948,-55.176,-45.898,-26.855,-105.469,0
1667321571.952,-94.727,-57.617,-44.434,-140.137,0
1667321571.956,-84.473,-60.059,-62.012,-151.367,0
1667321571.960,-24.902,-41.992,-33.203,-91.797,0
1667321571.964,-31.738,-38.086,-17.090,-83.496,0
1667321571.968,-90.820,-51.270,-41.016,-149.902,0
1667321571.972,-78.613,-50.293,-44.922,-144.043,0
1667321571.976,-29.785,-42.969,-34.668,-109.863,0
1667321571.980,-23.438,-31.250,-19.043,-98.145,0
1667321571.984,-70.801,-41.504,-35.156,-128.418,0
1667321571.988,-85.938,-55.176,-63.965,-151.367,0
1667321571.991,-38.086,-49.316,-56.641,-122.070,0
1667321571.995,3.906,-36.133,-20.996,-81.543,0
1667321571.999,-68.848,-50.781,-45.898,-133.301,0
1667321572.003,-110.352,-61.035,-74.707,-162.598,0
1667321572.007,-50.781,-55.176,-56.641,-116.211,0
1667321572.008,-33.691,-54.199,-49.316,-105.469,0
1667321572.012,-90.332,-62.988,-64.941,-144.531,0
1667321572.016,-112.793,-60.547,-66.406,-158.691,0
1667321572.020,-67.383,-50.781,-51.758,-129.883,0
1667321572.024,-33.691,-47.363,-37.109,-102.051,0
1667321572.028,-54.688,-48.340,-35.156,-106.934,0
1667321572.032,-93.262,-55.176,-47.852,-131.348,0
1667321572.035,-60.547,-44.922,-32.227,-103.516,0
1667321572.039,-3.906,-35.156,-13.184,-61.523,0
1667321572.043,-62.012,-65.430,-59.082,-122.559,0
1667321572.047,-104.004,-60.059,-58.105,-148.438,0
1667321572.051,-83.008,-51.270,-45.898,-132.324,90
1667321572.069,-66.895,-64.941,-67.871,-131.836,0
1667321572.073,-52.246,-61.035,-59.082,-116.699,0
1667321572.077,-73.730,-57.617,-50.781,-136.230,0
1667321572.081,-83.008,-58.594,-53.223,-145.020,0
1667321572.085,-55.664,-56.152,-50.293,-125.000,0
1667321572.089,-32.227,-49.316,-37.598,-103.027,0
1667321572.093,-53.223,-46.387,-39.551,-106.934,0
1667321572.096,-62.500,-43.945,-36.133,-119.629,0
1667321572.100,-80.078,-64.941,-66.895,-147.461,0
1667321572.104,-59.082,-64.453,-72.266,-137.207,0
1667321572.108,-33.691,-45.410,-42.480,-117.188,0
1667321572.112,-65.430,-45.410,-44.434,-134.277,0
1667321572.098,-78.613,-58.105,-61.035,-147.949,0
1667321572.102,-40.527,-58.594,-56.641,-116.211,0
1667321572.106,-20.996,-42.480,-36.621,-87.891,0
1667321572.110,-74.707,-49.316,-42.480,-127.930,0
1667321572.114,-83.008,-57.617,-49.316,-135.254,0
1667321572.118,-36.133,-48.828,-42.969,-104.004,0
1667321572.122,-20.996,-38.574,-31.738,-92.285,0
1667321572.125,-55.664,-41.992,-34.668,-115.234,0
1667321572.129,-75.195,-47.363,-44.922,-130.859,0
1667321572.133,-38.574,-44.434,-37.109,-104.004,0
1667321572.137,9.277,-28.320,-12.695,-61.523,0
1667321572.141,-23.438,-35.156,-13.672,-66.406,0
1667321572.172,-109.375,-61.035,-55.176,-143.555,0
1667321572.176,-72.754,-48.828,-49.805,-138.672,0
1667321572.180,-28.320,-42.480,-34.180,-98.145,0
1667321572.184,-47.363,-42.480,-37.598,-108.398,0
1667321572.188,-76.172,-41.504,-41.016,-130.859,0
1667321572.192,-61.035,-40.039,-27.832,-105.469,0
1667321572.196,-20.996,-36.133,-14.648,-67.871,0
1667321572.199,-46.875,-50.293,-37.598,-104.980,0
1667321572.203,-89.355,-56.152,-49.805,-137.695,0
1667321572.207,-79.590,-44.922,-37.109,-117.676,0
1667321572.211,-27.832,-38.086,-29.785,-85.938,0
1667321572.215,-18.555,-36.133,-35.645,-86.914,0
1667321572.202,-62.988,-42.969,-36.621,-113.770,0
1667321572.206,-88.379,-47.363,-36.133,-131.348,0
1667321572.210,-62.500,-53.711,-48.828,-127.441,0
1667321572.214,-21.973,-50.781,-43.457,-108.398,0
1667321572.218,-50.293,-49.316,-37.109,-113.770,0
1667321572.222,-87.402,-54.688,-36.133,-127.441,0
1667321572.226,-66.895,-54.688,-37.109,-115.234,0
1667321572.229,-29.785,-51.270,-38.574,-83.984,0
1667321572.233,-49.316,-52.734,-46.387,-106.934,0
1667321572.237,-72.266,-40.527,-30.762,-111.816,0
1667321572.241,-69.824,-48.828,-30.762,-89.355,0
1667321572.245,-56.152,-60.547,-49.805,-112.305,0
1667321572.264,-38.086,-43.945,-41.016,-108.398,0
1667321572.268,-50.293,-32.227,-15.137,-86.426,0
1667321572.272,-89.355,-54.688,-40.527,-119.141,0
1667321572.276,-82.031,-68.848,-69.336,-138.184,0
1667321572.280,-34.180,-49.316,-44.434,-102.051,0
1667321572.284,-43.945,-40.039,-29.785,-95.215,0
1667321572.288,-82.031,-57.617,-43.457,-120.117,0
1667321572.291,-74.707,-69.336,-62.012,-126.465,0
1667321572.295,-27.344,-47.363,-43.457,-87.891,0
1667321572.299,-12.207,-31.738,-18.555,-61.523,0
1667321572.303,-85.938,-53.223,-46.875,-113.770,0
1667321572.307,-87.891,-56.152,-59.082,-120.605,0
1667321572.292,-29.297,-43.457,-43.945,-88.867,0
1667321572.296,-44.922,-47.363,-43.945,-95.215,0
1667321572.300,-89.844,-52.734,-50.781,-120.605,0
1667321572.304,-84.961,-49.316,-50.293,-127.441,0
1667321572.308,-40.527,-46.387,-46.387,-99.609,0
1667321572.312,-27.344,-41.504,-42.480,-83.984,0
1667321572.316,-55.176,-40.527,-40.527,-107.910,0
1667321572.319,-70.312,-41.992,-43.457,-115.723,0
1667321572.323,-32.715,-41.016,-41.016,-84.961,0
1667321572.327,-16.113,-52.246,-46.387,-87.891,0
1667321572.331,-58.105,-58.594,-58.105,-123.535,0
1667321572.335,-93.750,-51.758,-52.734,-131.836,0
1667321572.382,-35.156,-36.133,-24.902,-74.707,0
1667321572.386,-7.812,-39.551,-32.715,-63.965,0
1667321572.390,-56.641,-51.758,-57.129,-118.164,0
1667321572.394,-83.496,-50.293,-54.199,-138.672,0
1667321572.398,-70.312,-52.734,-51.270,-125.977,0
1667321572.402,-37.109,-54.688,-50.293,-86.426,0
1667321572.406,-43.945,-52.246,-49.316,-98.145,0
1667321572.409,-62.012,-39.062,-36.133,-124.512,0
1667321572.413,-63.477,-29.297,-33.203,-110.352,0
1667321572.417,-55.176,-42.969,-57.617,-117.188,0
1667321572.421,-20.508,-41.016,-50.781,-104.980,0
1667321572.425,-50.781,-35.645,-31.738,-107.910,0
1667321572.385,-84.961,-47.852,-44.922,-129.395,0
1667321572.389,-57.617,-48.828,-55.664,-112.305,0
1667321572.393,-30.762,-45.410,-42.480,-85.449,0
1667321572.397,-44.434,-42.480,-33.691,-90.820,0
1667321572.401,-87.891,-49.316,-43.457,-111.816,0
1667321572.405,-68.359,-48.340,-42.480,-104.004,0
1667321572.409,-30.273,-43.457,-41.016,-95.703,0
1667321572.412,-31.738,-41.992,-32.227,-87.402,0
1667321572.416,-78.125,-52.734,-48.340,-113.770,0
1667321572.420,-97.656,-56.641,-70.801,-137.207,0
1667321572.424,-36.621,-38.574,-51.270,-98.633,0
1667321572.428,-6.836,-29.785,-26.367,-69.336,0
1667321572.435,-51.270,-39.551,-42.480,-103.027,0
1667321572.439,-95.703,-49.316,-62.012,-139.160,0
1667321572.443,-62.500,-40.039,-44.922,-101.562,0
1667321572.447,-7.324,-20.508,-20.996,-48.828,0
1667321572.451,-54.688,-32.227,-33.691,-95.703,0
1667321572.455,-83.008,-41.992,-37.109,-123.535,0
1667321572.459,-34.180,-43.457,-31.738,-86.426,0
1667321572.462,4.883,-33.691,-12.207,-44.922,0
1667321572.466,-48.828,-40.527,-24.414,-82.520,0
1667321572.470,-107.422,-52.734,-54.199,-145.996,0
1667321572.474,-70.801,-39.551,-41.016,-117.188,0
1667321572.478,-36.621,-46.875,-43.457,-97.656,0
1667321572.502,-46.387,-47.852,-49.805,-109.375,0
1667321572.506,-83.984,-44.434,-48.340,-126.465,0
1667321572.510,-67.871,-41.504,-42.480,-103.516,0
1667321572.514,-33.691,-47.852,-48.828,-92.773,0
1667321572.518,-31.738,-48.340,-42.969,-96.680,0
1667321572.522,-68.359,-45.410,-41.016,-111.816,0
1667321572.526,-64.453,-36.133,-30.762,-93.750,0
1667321572.529,-16.113,-31.250,-20.508,-52.734,0
1667321572.533,-30.273,-44.434,-43.945,-85.449,0
1667321572.537,-65.430,-48.828,-42.969,-101.074,0
1667321572.541,-78.613,-47.363,-38.086,-100.586,0
1667321572.545,-73.242,-50.293,-49.805,-122.559,0
1667321572.520,-55.176,-45.898,-55.664,-119.629,0
1667321572.524,-49.316,-33.691,-37.109,-104.492,0
1667321572.528,-72.266,-33.203,-25.391,-108.398,0
1667321572.532,-84.961,-46.875,-51.270,-130.859,0
1667321572.536,-56.152,-47.363,-57.129,-120.605,0
1667321572.540,-22.949,-30.762,-20.996,-83.984,0
1667321572.544,-50.781,-28.809,-19.043,-93.750,0
1667321572.547,-89.355,-43.457,-53.223,-137.207,0
1667321572.551,-43.945,-40.039,-46.387,-108.398,0
1667321572.555,-17.090,-29.785,-30.273,-82.520,0
1667321572.559,-61.523,-35.156,-38.086,-117.188,0
1667321572.563,-88.867,-43.945,-51.758,-147.949,0
1667321572.592,-50.781,-42.969,-53.223,-135.742,0
1667321572.596,-9.766,-29.785,-30.762,-91.309,0
1667321572.600,-29.297,-28.809,-19.043,-85.449,0
1667321572.604,-88.379,-50.293,-55.664,-142.090,0
1667321572.608,-68.848,-44.922,-51.758,-119.629,0
1667321572.612,-20.508,-27.832,-22.949,-67.871,0
1667321572.616,-25.879,-21.484,-15.625,-69.336,0
1667321572.619,-96.191,-46.387,-53.223,-131.348,0
1667321572.623,-97.168,-52.734,-60.059,-138.672,0
1667321572.627,-21.973,-33.203,-26.367,-70.312,0
1667321572.631,-24.414,-40.039,-33.691,-74.707,0
1667321572.635,-81.543,-47.363,-46.387,-117.676,0
1667321572.622,-64.453,-39.062,-40.527,-114.258,0
1667321572.626,-12.207,-32.715,-31.738,-87.891,0
1667321572.630,-31.738,-37.598,-34.668,-96.191,0
1667321572.634,-68.359,-36.621,-32.227,-115.723,0
1667321572.638,-61.035,-28.320,-24.414,-108.398,0
1667321572.642,-24.902,-25.879,-20.508,-78.125,0
1667321572.646,-16.113,-33.203,-24.902,-72.266,0
1667321572.649,-38.086,-30.762,-29.297,-99.609,0
1667321572.653,-48.828,-22.949,-24.414,-112.793,0
1667321572.657,-43.457,-29.785,-31.738,-103.516,0
1667321572.661,-14.648,-34.668,-36.621,-81.543,0
1667321572.665,-7.324,-26.367,-29.785,-84.473,0
1667321572.682,-36.621,-22.949,-18.066,-109.375,0
1667321572.686,-40.039,-29.297,-20.508,-98.633,0
1667321572.690,-17.090,-34.180,-30.762,-91.797,0
1667321572.694,-14.160,-32.715,-22.949,-90.332,0
1667321572.698,-36.621,-27.832,-10.742,-80.566,0
1667321572.702,-31.250,-24.414,1.465,-65.918,0
1667321572.706,-35.645,-42.480,-30.273,-97.168,0
1667321572.709,-29.297,-39.551,-36.621,-102.051,0
1667321572.713,-18.066,-16.113,-4.395,-78.613,0
1667321572.717,-70.801,-29.785,-15.625,-106.445,0
1667321572.721,-75.195,-41.504,-41.504,-117.188,0
1667321572.725,-10.254,-22.949,-21.484,-76.660,0
1667321572.730,-20.508,-15.137,-13.672,-80.566,0
1667321572.734,-66.406,-21.484,-28.320,-106.445,0
1667321572.738,-39.062,-21.484,-23.926,-77.148,0
1667321572.742,-9.277,-17.578,-15.625,-53.223,0
1667321572.746,-18.066,-17.090,-8.789,-66.895,0
1667321572.750,-46.387,-23.438,-6.836,-87.402,0
1667321572.754,-66.406,-33.691,-21.973,-107.422,0
1667321572.757,-26.855,-26.855,-26.367,-83.984,0
1667321572.761,-4.395,-16.113,-16.113,-66.406,0
1667321572.765,-54.688,-19.531,-22.949,-94.238,0
1667321572.769,-68.359,-17.578,-25.391,-96.191,0
1667321572.773,-21.973,-14.160,-19.531,-67.871,0
1667321572.772,6.836,-10.742,-17.578,-47.363,0
1667321572.776,-44.434,-18.066,-36.133,-91.309,0
1667321572.780,-69.824,-14.648,-30.762,-110.352,0
1667321572.784,-29.297,-10.254,-16.602,-69.336,0
1667321572.788,-11.230,-17.090,-22.461,-55.664,0
1667321572.792,-24.902,-19.043,-26.367,-76.172,0
1667321572.796,-56.641,-22.949,-29.785,-86.914,0
1667321572.799,-42.969,-25.879,-22.461,-64.453,0
1667321572.803,-24.902,-29.297,-30.762,-71.777,0
1667321572.807,-38.574,-25.391,-34.180,-83.008,0
1667321572.811,-56.152,-22.461,-30.762,-87.891,0
1667321572.815,-32.715,-7.812,-10.742,-56.152,0
1667321572.847,3.906,-9.766,-5.859,-24.902,0
1667321572.851,-24.414,-27.832,-40.039,-64.453,0
1667321572.855,-63.965,-19.043,-43.945,-95.703,0
1667321572.859,-68.359,-13.184,-31.738,-90.820,0
1667321572.863,-38.574,-18.555,-35.156,-73.242,0
1667321572.867,3.906,-13.672,-28.809,-48.828,0
1667321572.871,-8.789,-10.742,-20.996,-52.246,0
1667321572.874,-57.129,-19.531,-27.344,-75.195,0
1667321572.878,-49.805,-29.785,-39.551,-77.637,0
1667321572.882,2.441,-32.715,-33.691,-50.293,0
1667321572.886,28.809,-5.371,-6.348,-29.297,0
1667321572.890,0.977,13.184,2.441,-41.504,0
1667321572.850,-57.617,-12.207,-41.992,-96.191,0
1667321572.854,-17.090,-13.184,-41.016,-76.660,0
1667321572.858,1.953,-3.418,-26.367,-62.012,0
1667321572.862,-42.480,1.465,-32.227,-87.402,0
1667321572.866,-45.410,-2.441,-29.785,-80.078,0
1667321572.870,-17.090,-11.719,-30.273,-69.336,0
1667321572.874,2.441,-7.324,-26.855,-45.898,0
1667321572.877,-46.875,-19.531,-43.457,-74.707,0
1667321572.881,-84.961,-30.762,-56.641,-110.352,0
1667321572.885,-20.996,-10.254,-34.668,-49.316,0
1667321572.889,28.809,2.441,-23.926,-11.719,0
1667321572.893,-29.785,-18.555,-45.410,-77.637,0
1667321572.939,-79.590,-32.227,-54.688,-113.281,0
1667321572.943,-48.828,-24.902,-45.410,-89.355,0
1667321572.947,12.695,-12.207,-23.438,-41.992,0
1667321572.951,0.000,-14.160,-28.809,-61.523,0
1667321572.955,-57.617,-23.438,-40.527,-105.957,0
1667321572.959,-60.059,-27.832,-30.762,-95.215,0
1667321572.963,6.348,-11.719,-2.930,-31.738,0
1667321572.966,2.930,-12.207,-11.230,-31.250,0
1667321572.970,-74.707,-37.109,-51.270,-113.281,0
1667321572.974,-64.453,-35.156,-42.969,-117.188,0
1667321572.978,-30.273,-32.227,-40.527,-91.797,0
1667321572.982,-24.414,-41.016,-41.016,-91.309,0
1667321572.942,-42.969,-35.156,-23.438,-96.191,0
1667321572.946,-63.477,-29.297,-17.578,-100.098,0
1667321572.950,-44.434,-37.109,-25.879,-89.355,0
1667321572.954,-11.719,-37.109,-30.273,-74.219,0
1667321572.958,-20.508,-25.879,-24.902,-85.938,0
1667321572.962,-44.922,-21.484,-17.578,-96.191,0
1667321572.966,-43.945,-33.203,-34.668,-97.656,0
1667321572.969,-32.715,-33.691,-45.898,-95.703,0
1667321572.973,-40.039,-33.203,-42.480,-102.051,0
1667321572.977,-53.711,-27.344,-32.227,-109.863,0
1667321572.981,-60.059,-34.180,-38.574,-119.141,0
1667321572.985,-48.340,-41.992,-47.363,-121.094,0
1667321572.998,-28.809,-27.832,-36.133,-104.004,0
1667321573.002,-32.715,-19.043,-21.484,-103.027,0
1667321573.006,-68.359,-35.156,-40.039,-126.465,0
1667321573.010,-62.988,-38.574,-50.781,-114.258,0
1667321573.014,-21.484,-26.855,-37.109,-79.590,0
1667321573.018,-12.207,-10.254,-8.301,-49.805,0
1667321573.022,-47.852,-16.602,-11.230,-65.918,0
1667321573.025,-73.730,-41.992,-55.176,-112.305,0
1667321573.029,-24.414,-28.320,-41.992,-89.844,0
1667321573.033,-37.109,-22.949,-23.438,-83.984,0
1667321573.037,-93.262,-35.645,-33.691,-116.699,0
1667321573.041,-70.801,-33.691,-32.715,-125.000,0
1667321573.057,-33.203,-33.203,-30.762,-90.332,0
1667321573.061,-37.598,-36.621,-28.809,-87.891,71
1667321573.065,-89.355,-44.434,-35.156,-133.789,0
1667321573.069,-75.195,-38.086,-33.203,-126.465,0
1667321573.073,-24.414,-27.832,-22.949,-82.520,0
1667321573.077,-26.367,-26.367,-20.996,-78.613,0
1667321573.081,-66.406,-34.180,-31.250,-108.398,0
1667321573.084,-96.191,-43.945,-41.504,-130.859,0
1667321573.088,-47.363,-32.227,-23.926,-87.402,0
1667321573.092,-8.301,-23.438,-13.672,-51.270,0
1667321573.096,-70.801,-42.480,-43.945,-112.793,0
1667321573.100,-108.398,-44.922,-51.270,-136.230,0
1667321573.120,-79.102,-40.039,-42.480,-104.492,0
1667321573.124,-55.664,-46.875,-45.898,-101.074,0
1667321573.128,-63.965,-41.992,-39.551,-105.469,0
1667321573.132,-90.820,-41.992,-30.762,-116.211,0
1667321573.136,-83.984,-43.457,-33.691,-113.281,0
1667321573.140,-34.668,-35.156,-32.227,-86.914,0
1667321573.144,-26.367,-33.691,-31.738,-87.402,0
1667321573.147,-68.359,-33.691,-29.297,-109.375,0
1667321573.151,-81.055,-37.109,-34.180,-108.887,0
1667321573.155,-54.688,-42.480,-52.246,-110.840,0
1667321573.159,-36.621,-37.109,-44.922,-103.516,0
1667321573.163,-58.594,-29.785,-23.438,-77.148,0
1667321573.147,-66.406,-27.344,-16.113,-77.148,0
1667321573.151,-78.125,-50.781,-53.711,-126.953,0
1667321573.155,-44.922,-45.410,-52.734,-110.840,0
1667321573.159,-34.180,-30.762,-31.250,-94.238,0
1667321573.163,-73.242,-41.992,-39.062,-122.070,0
1667321573.167,-57.129,-46.387,-38.574,-114.258,0
1667321573.171,-26.367,-42.969,-35.156,-99.121,0
1667321573.174,-31.738,-45.898,-34.180,-96.191,0
1667321573.178,-62.988,-45.410,-39.062,-112.305,0
1667321573.182,-73.242,-47.852,-49.805,-125.000,0
1667321573.186,-31.250,-44.922,-42.969,-103.516,0
1667321573.190,-5.859,-30.273,-20.996,-80.078,0
1667321573.179,-70.312,-42.969,-33.203,-115.723,0
1667321573.183,-102.051,-55.176,-52.734,-138.184,0
1667321573.187,-43.457,-42.969,-41.016,-113.281,0
1667321573.191,8.789,-21.484,-9.277,-63.965,0
1667321573.195,-37.598,-28.320,-14.160,-73.730,0
1667321573.199,-99.609,-47.852,-44.922,-134.277,0
1667321573.203,-69.336,-49.805,-41.016,-115.234,0
1667321573.206,-31.738,-53.223,-33.203,-85.938,0
1667321573.210,-42.969,-50.781,-36.621,-96.191,0
1667321573.214,-94.238,-41.016,-49.316,-136.719,0
1667321573.218,-78.125,-33.203,-48.828,-119.141,0
1667321573.222,2.441,-20.508,-27.344,-53.223,0
1667321573.222,-22.461,-27.832,-48.340,-85.938,0
1667321573.226,-82.031,-39.551,-62.500,-122.559,0
1667321573.230,-61.035,-34.180,-41.016,-89.844,0
1667321573.234,-27.832,-43.945,-42.480,-76.660,0
1667321573.238,-29.785,-43.945,-48.340,-74.707,0
1667321573.242,-62.500,-35.645,-41.016,-99.609,0
1667321573.246,-71.289,-34.668,-35.645,-103.516,0
1667321573.249,-39.551,-35.156,-34.180,-68.359,0
1667321573.253,-45.898,-49.805,-58.105,-92.773,0
1667321573.257,-71.289,-43.457,-59.082,-114.746,0
1667321573.261,-76.172,-27.832,-35.645,-105.469,0
1667321573.265,-51.270,-32.227,-42.969,-104.980,0
1667321573.269,-22.461,-34.668,-52.734,-97.656,0
1667321573.273,-41.016,-34.668,-47.363,-93.750,0
1667321573.277,-76.172,-37.598,-49.316,-118.164,0
1667321573.281,-75.684,-40.039,-47.852,-124.512,0
1667321573.285,-37.598,-39.062,-42.969,-98.145,0
1667321573.289,-16.602,-29.785,-26.367,-74.707,0
1667321573.293,-41.504,-23.438,-4.883,-71.289,0
1667321573.296,-76.172,-41.504,-35.156,-105.957,0
1667321573.300,-49.316,-43.457,-56.152,-100.098,0
1667321573.304,-21.484,-38.086,-45.410,-80.566,0
1667321573.308,-59.570,-42.969,-45.410,-113.281,0
1667321573.312,-73.242,-41.504,-53.223,-136.719,0
1667321573.312,-49.316,-47.363,-66.895,-133.301,0
1667321573.316,-32.715,-41.992,-56.641,-104.980,0
1667321573.320,-56.641,-43.945,-50.293,-115.234,0
1667321573.324,-90.332,-43.457,-51.270,-132.324,0
1667321573.328,-59.570,-38.574,-51.270,-117.676,0
1667321573.332,-6.348,-35.645,-41.016,-80.566,0
1667321573.336,-24.414,-33.691,-31.738,-70.801,0
1667321573.339,-103.516,-55.664,-62.988,-136.230,0
1667321573.343,-98.633,-52.246,-62.988,-133.301,0
1667321573.347,-32.227,-32.715,-33.691,-77.148,0
1667321573.351,-32.715,-34.180,-40.527,-83.984,0
1667321573.355,-86.426,-44.434,-62.988,-113.770,0
1667321573.374,-83.984,-46.387,-58.105,-104.492,0
1667321573.378,-37.598,-43.457,-48.340,-82.031,0
1667321573.382,-38.086,-45.898,-52.734,-78.613,0
1667321573.386,-71.289,-47.852,-55.664,-102.539,0
1667321573.390,-80.566,-44.922,-49.316,-115.723,0
1667321573.394,-42.969,-41.504,-41.992,-89.355,0
1667321573.398,-24.902,-45.410,-47.363,-75.195,0
1667321573.401,-48.828,-43.945,-52.246,-95.703,0
1667321573.405,-65.918,-34.668,-37.109,-97.656,0
1667321573.409,-40.527,-35.156,-30.273,-73.730,0
1667321573.413,-20.020,-42.969,-44.922,-75.684,0
1667321573.417,-27.832,-37.598,-41.504,-95.215,0
1667321573.417,-69.824,-33.691,-32.227,-106.445,0
1667321573.421,-81.055,-44.922,-37.598,-97.168,0
1667321573.425,-55.176,-54.199,-59.082,-96.191,0
1667321573.429,-38.574,-45.410,-52.246,-84.473,0
1667321573.433,-60.547,-42.969,-38.574,-86.426,0
1667321573.437,-80.566,-49.316,-44.922,-100.586,0
1667321573.441,-45.410,-44.922,-45.898,-83.496,0
1667321573.444,-23.926,-45.898,-40.039,-75.684,0
1667321573.448,-39.062,-41.992,-23.926,-74.707,0
1667321573.452,-60.059,-34.180,-15.137,-64.941,0
1667321573.456,-75.684,-55.664,-54.199,-110.352,0
1667321573.460,-32.227,-53.223,-51.270,-104.980,0
1667321573.486,-35.156,-44.434,-32.715,-87.891,0
1667321573.490,-75.684,-43.945,-37.109,-96.191,0
1667321573.494,-71.777,-44.922,-42.480,-95.703,0
1667321573.498,-29.297,-37.598,-37.598,-93.262,0
1667321573.502,-21.973,-35.156,-26.367,-76.172,0
1667321573.506,-45.410,-37.598,-27.832,-79.102,0
1667321573.510,-71.289,-34.668,-40.039,-102.051,0
1667321573.513,-66.895,-30.762,-41.504,-113.770,0
1667321573.517,-42.969,-19.531,-22.461,-87.402,0
1667321573.521,-95.703,-35.156,-43.945,-130.859,0
1667321573.525,-135.254,-54.199,-59.082,-177.734,0
1667321573.529,-94.238,-49.805,-54.199,-146.484,0
1667321573.507,-58.594,-39.551,-52.246,-127.441,0
1667321573.511,-100.586,-42.969,-53.711,-159.668,0
1667321573.515,-124.023,-42.969,-51.758,-166.504,0
1667321573.519,-83.008,-41.504,-44.922,-132.812,0
1667321573.523,-49.316,-45.410,-53.223,-116.211,0
1667321573.527,-54.199,-43.945,-54.688,-125.000,0
1667321573.531,-85.449,-35.645,-48.828,-131.836,0
1667321573.534,-73.730,-30.273,-38.574,-105.957,0
1667321573.538,-60.059,-45.410,-50.781,-98.145,0
1667321573.542,-71.289,-45.410,-60.547,-119.141,0
1667321573.546,-96.680,-41.992,-53.711,-133.301,0
1667321573.550,-84.961,-34.180,-33.691,-100.586,0
1667321573.612,-55.664,-39.062,-34.180,-83.008,0
1667321573.616,-67.871,-50.781,-62.500,-121.582,0
1667321573.620,-72.754,-35.156,-42.480,-119.629,0
1667321573.624,-94.238,-43.457,-38.574,-118.652,0
1667321573.628,-73.242,-52.734,-52.246,-119.629,0
1667321573.632,-45.898,-42.969,-40.527,-99.121,0
1667321573.636,-70.312,-38.086,-34.668,-96.191,0
1667321573.639,-78.613,-27.344,-27.344,-80.566,0
1667321573.643,-82.520,-40.527,-54.199,-108.398,0
1667321573.647,-49.316,-43.457,-62.988,-124.512,0
1667321573.651,-36.133,-27.344,-41.992,-103.516,0
1667321573.655,-70.801,-33.691,-41.992,-114.746,0
1667321573.614,-83.496,-45.898,-54.688,-125.977,0
1667321573.618,-42.480,-43.457,-54.199,-97.656,0
1667321573.622,-10.254,-31.250,-35.645,-75.195,0
1667321573.626,-55.664,-31.250,-41.016,-100.098,0
1667321573.630,-76.172,-33.691,-48.340,-110.840,0
1667321573.634,-46.875,-34.180,-41.016,-91.309,0
1667321573.638,-32.715,-35.156,-39.551,-87.891,0
1667321573.641,-62.988,-33.691,-43.457,-111.328,0
1667321573.645,-100.098,-45.898,-54.199,-140.137,0
1667321573.649,-77.637,-52.246,-62.500,-130.859,0
1667321573.653,-16.602,-35.156,-37.109,-78.125,0
1667321573.657,-48.340,-41.016,-45.898,-92.285,0
1667321573.657,-95.215,-42.969,-59.570,-127.930,0
1667321573.661,-46.387,-22.949,-30.762,-90.332,0
1667321573.665,11.719,-13.672,-15.625,-47.852,0
1667321573.669,-28.809,-36.621,-40.039,-89.355,0
1667321573.673,-76.660,-43.457,-50.293,-127.441,0
1667321573.677,-60.547,-33.691,-35.645,-94.238,0
1667321573.681,-34.668,-34.668,-36.133,-76.172,0
1667321573.684,-37.598,-38.574,-48.828,-94.238,0
1667321573.688,-76.660,-43.945,-55.176,-119.629,0
1667321573.692,-72.266,-37.598,-45.410,-114.746,0
1667321573.696,-8.789,-21.484,-17.090,-50.781,0
1667321573.700,-24.414,-38.574,-35.156,-66.406,0
1667321573.702,-74.707,-53.223,-53.711,-118.652,0
1667321573.706,-88.867,-42.480,-40.039,-112.793,0
1667321573.710,-69.336,-41.504,-41.992,-87.402,0
1667321573.714,-30.762,-34.668,-43.457,-62.500,0
1667321573.718,-45.410,-26.367,-41.504,-97.168,0
1667321573.722,-65.430,-25.879,-31.738,-112.305,0
1667321573.726,-62.500,-36.621,-36.133,-97.656,0
1667321573.729,-60.547,-41.016,-52.246,-103.516,0
1667321573.733,-55.664,-41.016,-46.875,-110.352,0
1667321573.737,-76.660,-38.086,-29.297,-109.863,0
1667321573.741,-84.961,-38.574,-38.086,-112.305,0
1667321573.745,-51.758,-41.016,-48.340,-104.004,0
1667321573.749,-25.391,-32.227,-24.414,-82.520,0
1667321573.753,-36.621,-24.414,-12.695,-84.473,0
1667321573.757,-63.965,-37.598,-36.621,-106.934,0
1667321573.761,-44.434,-34.668,-39.551,-95.703,0
1667321573.765,-15.137,-19.531,-30.273,-80.078,0
1667321573.769,-32.227,-19.043,-23.926,-83.496,0
1667321573.773,-75.684,-30.273,-33.691,-109.863,0
1667321573.776,-80.078,-42.480,-55.664,-124.023,0
1667321573.780,-27.344,-38.086,-41.504,-89.355,0
1667321573.784,-18.555,-31.738,-15.137,-66.895,0
1667321573.788,-85.938,-50.293,-45.410,-120.117,0
1667321573.792,-79.590,-48.340,-52.734,-134.766,0
1667321573.792,-28.809,-32.227,-33.203,-92.773,0
1667321573.796,-33.203,-32.715,-34.180,-86.914,0
1667321573.800,-69.824,-40.527,-36.621,-116.699,0
1667321573.804,-84.961,-44.434,-38.574,-123.535,0
1667321573.808,-55.664,-39.551,-36.621,-94.727,0
1667321573.812,-34.668,-38.574,-27.344,-79.590,0
1667321573.816,-60.059,-42.480,-27.344,-99.609,0
1667321573.819,-76.172,-45.898,-35.645,-118.164,0
1667321573.823,-34.180,-32.715,-25.879,-83.008,0
1667321573.827,-1.953,-19.043,-17.090,-49.805,0
1667321573.831,-58.105,-41.504,-47.852,-105.469,0
1667321573.835,-75.195,-41.504,-38.086,-116.211,0
1667321573.839,-52.246,-36.133,-28.809,-87.402,0
1667321573.843,-41.992,-48.340,-43.457,-83.008,0
1667321573.847,-35.156,-42.969,-36.133,-84.961,0
1667321573.851,-65.918,-41.504,-36.621,-105.469,0
1667321573.855,-66.406,-39.551,-39.062,-102.051,0
1667321573.859,-18.555,-33.203,-31.738,-81.055,0
1667321573.863,-24.414,-31.738,-30.762,-89.355,0
1667321573.866,-72.754,-31.738,-27.832,-103.027,0
1667321573.870,-54.688,-25.391,-10.742,-67.871,0
1667321573.874,-44.434,-38.574,-44.922,-94.238,0
1667321573.878,-36.621,-43.457,-54.199,-110.840,0
1667321573.882,-53.711,-39.551,-32.715,-104.492,0
1667321573.882,-92.285,-48.828,-36.133,-125.488,0
1667321573.886,-62.500,-52.734,-31.738,-104.492,0
1667321573.890,-17.090,-38.574,-22.949,-66.406,0
1667321573.894,-45.410,-37.598,-18.555,-71.777,0
1667321573.898,-77.637,-45.410,-23.438,-99.121,0
1667321573.902,-57.617,-43.457,-32.715,-90.820,0
1667321573.906,-25.879,-38.574,-31.738,-70.312,0
1667321573.909,-10.742,-22.461,-8.301,-52.246,0
1667321573.913,-37.109,-28.320,-6.836,-56.152,0
1667321573.917,-80.566,-52.734,-50.293,-111.328,0
1667321573.921,-54.199,-44.434,-54.688,-101.562,0
1667321573.925,-17.578,-32.227,-36.133,-73.242,0
1667321573.929,-62.988,-35.156,-42.480,-108.887,0
1667321573.933,-79.102,-31.738,-37.109,-111.816,0
1667321573.937,-29.297,-34.180,-29.297,-78.125,0
1667321573.941,-14.648,-39.551,-32.715,-73.730,0
1667321573.945,-51.270,-36.133,-30.273,-91.309,0
1667321573.949,-79.102,-41.504,-27.344,-106.934,0
1667321573.953,-52.246,-46.387,-28.809,-89.355,0
1667321573.956,1.953,-33.203,-16.113,-46.875,0
1667321573.960,-41.992,-50.781,-48.340,-98.633,0
1667321573.964,-75.195,-51.758,-50.293,-122.070,0
1667321573.968,-56.152,-45.898,-44.434,-106.934,0
1667321573.972,-38.574,-61.523,-59.570,-108.398,0
1667321573.972,-41.016,-60.547,-51.270,-105.469,0
1667321573.976,-69.336,-51.270,-48.340,-131.836,0
1667321573.980,-61.523,-46.387,-39.062,-110.840,0
1667321573.984,-33.691,-49.805,-41.992,-82.031,0
1667321573.988,-32.715,-48.340,-42.480,-101.074,0
1667321573.992,-58.105,-46.387,-35.645,-115.723,0
1667321573.996,-72.266,-41.992,-27.344,-105.469,0
1667321573.999,-29.297,-33.691,-11.230,-59.082,0
1667321574.003,-44.434,-59.082,-51.270,-97.168,0
1667321574.007,-67.871,-62.988,-58.105,-128.906,0
1667321574.011,-71.289,-47.852,-36.133,-111.816,0
1667321574.015,-67.871,-49.805,-47.363,-110.352,0
1667321574.019,-38.086,-59.082,-52.734,-104.980,0
1667321574.023,-56.641,-57.617,-51.758,-115.234,0
1667321574.027,-97.168,-53.711,-51.758,-124.023,0
1667321574.031,-87.891,-54.688,-56.152,-119.141,0
1667321574.035,-55.176,-57.129,-55.176,-102.051,0
1667321574.039,-41.992,-49.316,-32.715,-81.543,0
1667321574.043,-62.012,-41.016,-21.973,-83.008,0
1667321574.046,-95.215,-58.594,-54.688,-124.512,0
1667321574.050,-74.219,-54.199,-57.129,-117.188,0
1667321574.054,-26.367,-35.645,-26.855,-77.148,0
1667321574.058,-50.781,-43.457,-26.855,-96.191,0
1667321574.062,-107.422,-57.617,-51.270,-135.742,0
1667321574.062,-66.406,-51.270,-46.387,-113.281,0
1667321574.066,-23.438,-39.551,-37.109,-86.914,0
1667321574.070,-50.293,-47.852,-42.480,-93.750,0
1667321574.074,-83.496,-50.781,-44.922,-113.281,0
1667321574.078,-76.660,-47.852,-47.363,-106.934,0
1667321574.082,-20.020,-40.039,-28.809,-60.059,0
1667321574.086,-20.020,-41.016,-19.043,-54.199,0
1667321574.089,-77.637,-50.781,-43.945,-104.980,0
1667321574.093,-83.984,-43.945,-58.105,-124.512,0
1667321574.097,-34.668,-25.391,-43.457,-90.820,0
1667321574.101,-46.387,-32.227,-46.387,-99.609,0
1667321574.105,-90.820,-33.691,-58.105,-136.719,0
1667321574.138,-109.863,-26.855,-58.594,-143.066,0
1667321574.142,-50.781,-20.020,-36.621,-95.215,0
1667321574.146,-34.180,-19.043,-45.898,-94.238,0
1667321574.150,-80.078,-22.949,-51.758,-123.047,0
1667321574.154,-93.750,-21.973,-41.504,-122.070,0
1667321574.158,-62.988,-26.367,-45.898,-97.656,0
1667321574.162,-45.898,-31.250,-58.594,-89.844,0
1667321574.165,-64.453,-31.738,-54.688,-102.539,0
1667321574.169,-76.172,-27.832,-37.109,-99.121,0
1667321574.173,-57.617,-25.391,-34.180,-88.379,0
1667321574.177,-41.016,-31.250,-53.223,-96.191,0
1667321574.181,-46.387,-33.691,-55.176,-102.051,0
1667321574.167,-61.523,-28.320,-44.922,-130.859,0
1667321574.171,-77.637,-32.715,-47.852,-134.766,0
1667321574.175,-62.012,-38.574,-56.152,-107.910,0
1667321574.179,-41.016,-33.203,-50.293,-108.398,0
1667321574.183,-60.059,-26.367,-27.832,-111.328,0
1667321574.187,-64.453,-29.297,-23.926,-103.516,0
1667321574.191,-41.016,-36.133,-29.785,-93.750,0
1667321574.194,-27.832,-38.086,-29.297,-88.867,0
1667321574.198,-52.246,-34.668,-32.715,-104.980,0
1667321574.202,-88.867,-38.086,-35.645,-119.141,0
1667321574.206,-84.473,-45.898,-44.922,-109.375,0
1667321574.210,-44.922,-41.504,-41.016,-95.703,0
1667321574.215,-28.809,-29.297,-17.578,-69.824,0
1667321574.219,-67.871,-40.039,-24.414,-78.125,0
1667321574.223,-92.285,-62.012,-61.523,-128.418,0
1667321574.227,-60.547,-49.805,-57.617,-117.676,0
1667321574.231,-52.734,-35.645,-40.039,-105.957,0
1667321574.235,-83.984,-38.574,-41.016,-123.535,0
1667321574.239,-103.516,-50.293,-52.246,-132.324,0
1667321574.242,-57.129,-42.969,-44.922,-97.656,0
1667321574.246,-11.230,-21.484,-16.602,-52.246,0
1667321574.250,-77.148,-34.180,-37.109,-104.004,0
1667321574.254,-111.816,-41.992,-54.199,-145.508,0
1667321574.258,-66.406,-35.645,-43.457,-111.328,0
1667321574.257,-36.133,-34.180,-42.480,-89.844,0
1667321574.261,-62.988,-36.133,-45.410,-113.770,0
1667321574.265,-95.703,-41.504,-43.457,-127.930,0
1667321574.269,-63.477,-35.156,-34.180,-101.562,0
1667321574.273,-20.996,-29.297,-27.344,-72.754,0
1667321574.277,-29.785,-32.227,-25.391,-78.125,0
1667321574.281,-66.406,-37.109,-32.227,-112.305,0
1667321574.284,-60.059,-33.691,-29.297,-92.773,0
1667321574.288,-25.879,-27.344,-18.066,-39.551,0
1667321574.292,-47.852,-42.480,-42.480,-90.332,0
1667321574.296,-81.055,-44.434,-42.480,-122.559,0
1667321574.300,-97.168,-41.504,-37.598,-112.305,0
1667321574.304,-77.637,-47.852,-46.875,-106.934,0
1667321574.308,-47.363,-41.992,-41.016,-73.242,0
1667321574.312,-61.523,-30.762,-30.762,-83.984,0
1667321574.316,-84.961,-37.109,-34.180,-110.352,0
1667321574.320,-66.406,-43.457,-43.945,-95.215,0
1667321574.324,-34.668,-39.551,-38.086,-72.754,0
1667321574.328,-40.039,-31.250,-30.762,-76.172,0
1667321574.331,-60.059,-29.297,-25.879,-77.148,0
1667321574.335,-75.684,-48.340,-48.340,-89.355,0
1667321574.339,-42.480,-42.969,-44.922,-65.918,0
1667321574.343,-28.809,-30.762,-34.668,-57.617,0
1667321574.347,-69.824,-33.691,-41.016,-91.309,0
1667321574.362,-76.172,-43.945,-47.852,-100.586,0
1667321574.366,-35.645,-42.480,-49.805,-84.473,0
1667321574.370,-37.109,-34.668,-46.387,-81.543,0
1667321574.374,-75.684,-42.480,-49.316,-105.469,0
1667321574.378,-71.289,-37.109,-37.109,-92.773,0
1667321574.382,-44.922,-38.574,-37.109,-73.242,0
1667321574.386,-20.996,-42.969,-32.227,-66.895,0
1667321574.389,-32.227,-36.133,-11.719,-55.664,0
1667321574.393,-104.980,-52.246,-51.270,-107.422,0
1667321574.397,-83.984,-57.129,-56.152,-101.562,0
1667321574.401,-34.668,-46.387,-36.621,-64.453,0
1667321574.405,-70.801,-45.898,-47.363,-88.867,0
1667321574.407,-105.957,-47.852,-44.434,-103.516,0
1667321574.411,-81.055,-45.898,-40.039,-87.402,0
1667321574.415,-27.344,-46.387,-34.180,-67.383,0
1667321574.419,-32.227,-47.363,-36.621,-76.172,0
1667321574.423,-95.703,-53.223,-55.176,-115.723,0
1667321574.427,-88.867,-50.293,-52.246,-101.074,0
1667321574.431,-40.527,-47.852,-51.758,-82.031,0
1667321574.434,-41.992,-49.805,-58.105,-101.562,0
1667321574.438,-76.172,-46.875,-58.594,-123.535,0
1667321574.442,-75.195,-38.086,-51.758,-121.094,0
1667321574.446,-27.344,-28.809,-29.297,-73.730,0
1667321574.450,-42.969,-46.875,-54.199,-99.121,0
1667321574.442,-67.871,-49.805,-58.594,-121.094,0
1667321574.446,-68.848,-36.621,-31.738,-88.379,0
1667321574.450,-75.684,-43.945,-46.387,-96.680,0
1667321574.454,-57.617,-51.758,-59.082,-105.957,0
1667321574.458,-65.430,-46.875,-44.434,-110.840,0
1667321574.462,-96.680,-42.969,-39.062,-117.188,0
1667321574.466,-86.914,-48.828,-51.758,-102.539,0
1667321574.469,-61.523,-53.223,-62.988,-98.145,0
1667321574.473,-65.918,-52.246,-66.406,-109.375,0
1667321574.477,-79.590,-41.992,-51.270,-105.957,0
1667321574.481,-94.727,-49.316,-56.641,-109.375,0
1667321574.485,-78.125,-60.547,-74.707,-117.188,0
1667321574.498,-40.039,-50.781,-54.688,-90.332,0
1667321574.502,-61.523,-41.504,-39.062,-89.844,0
1667321574.506,-104.492,-49.805,-51.758,-124.512,0
1667321574.510,-83.984,-56.641,-56.641,-115.723,0
1667321574.514,-36.621,-42.480,-38.574,-72.754,0
1667321574.518,-42.969,-42.969,-31.738,-78.613,0
1667321574.522,-102.539,-56.641,-49.316,-118.164,0
1667321574.525,-86.426,-55.176,-55.664,-113.770,0
1667321574.529,-34.180,-53.711,-47.363,-84.961,0
1667321574.533,-36.133,-50.293,-30.273,-66.406,0
1667321574.537,-83.984,-52.734,-42.480,-105.469,0
1667321574.541,-87.891,-54.199,-44.434,-115.234,0
1667321574.542,-48.340,-49.316,-40.527,-95.215,0
1667321574.546,-41.992,-46.387,-38.086,-95.215,0
1667321574.550,-80.566,-48.828,-42.480,-124.023,0
1667321574.554,-78.125,-44.922,-41.992,-124.512,0
1667321574.558,-28.809,-35.156,-28.320,-79.590,0
1667321574.562,-27.832,-41.504,-29.297,-73.242,0
1667321574.566,-70.312,-51.758,-42.480,-108.398,0
1667321574.569,-89.844,-47.852,-42.969,-112.793,0
1667321574.573,-41.504,-38.086,-29.785,-68.359,0
1667321574.577,-4.883,-34.668,-21.973,-28.809,0
1667321574.581,-62.988,-49.316,-47.852,-91.797,0
1667321574.585,-94.238,-49.805,-47.363,-118.652,0
1667321574.604,-62.012,-43.457,-34.180,-77.637,0
1667321574.608,-26.367,-45.410,-36.621,-64.453,0
1667321574.612,-30.273,-45.898,-45.410,-81.055,0
1667321574.616,-63.965,-44.434,-45.410,-90.332,0
1667321574.620,-70.801,-45.410,-29.785,-88.379,0
1667321574.624,-36.133,-41.992,-13.184,-60.547,0
1667321574.628,-46.875,-54.688,-23.438,-71.289,0
1667321574.631,-74.707,-52.734,-30.762,-89.355,0
1667321574.635,-63.965,-36.133,-15.625,-65.430,0
1667321574.639,-58.594,-56.152,-30.273,-83.008,0
1667321574.643,-29.785,-57.617,-31.250,-91.797,0
1667321574.647,-50.781,-51.270,-18.066,-93.262,0
1667321574.632,-98.145,-62.500,-33.691,-113.770,0
1667321574.636,-66.895,-64.941,-41.992,-104.004,0
1667321574.640,-35.156,-53.711,-32.227,-78.613,0
1667321574.644,-34.668,-43.457,-14.648,-56.641,0
1667321574.648,-76.660,-51.758,-22.949,-88.867,0
1667321574.652,-67.871,-51.270,-25.879,-92.773,0
1667321574.656,-21.484,-44.922,-22.461,-69.336,0
1667321574.659,-30.273,-48.340,-28.809,-85.938,0
1667321574.663,-71.289,-60.059,-38.574,-112.305,0
1667321574.667,-93.262,-66.406,-52.734,-125.488,0
1667321574.671,-45.898,-56.641,-44.434,-99.609,0
1667321574.675,-12.695,-42.969,-18.555,-58.105,0
1667321574.679,-50.781,-41.016,-20.508,-69.336,0
1667321574.683,-88.867,-60.547,-59.082,-129.395,0
1667321574.687,-63.477,-60.059,-54.688,-111.816,0
1667321574.691,-56.641,-61.523,-44.434,-90.820,0
1667321574.695,-89.355,-62.012,-50.293,-117.676,0
1667321574.699,-97.168,-50.781,-37.109,-117.188,0
1667321574.703,-67.383,-51.270,-27.832,-94.238,0
1667321574.706,-13.184,-39.062,-9.766,-51.270,0
1667321574.710,-43.457,-49.316,-24.902,-75.195,0
1667321574.714,-93.262,-58.105,-45.410,-119.141,0
1667321574.718,-76.172,-52.246,-45.410,-101.074,0
1667321574.722,-54.199,-61.035,-54.688,-91.797,0
1667321574.722,-52.734,-53.223,-48.340,-88.379,0
1667321574.726,-82.520,-43.457,-46.387,-104.980,0
1667321574.730,-82.520,-41.504,-45.898,-99.609,0
1667321574.734,-34.180,-41.504,-37.109,-66.406,0
1667321574.738,-24.902,-38.086,-31.738,-62.500,0
1667321574.742,-65.430,-39.551,-30.273,-98.633,0
1667321574.746,-69.336,-36.621,-23.926,-106.445,0
1667321574.749,-26.367,-32.715,-13.672,-59.570,0
1667321574.753,-44.922,-54.688,-46.875,-83.984,0
1667321574.757,-72.754,-53.223,-52.734,-114.746,0
1667321574.761,-76.172,-44.434,-34.180,-108.398,0
1667321574.765,-62.988,-47.852,-43.457,-103.027,0
1667321574.770,-28.320,-44.922,-43.457,-83.984,0
1667321574.774,-33.691,-46.875,-37.598,-87.891,0
1667321574.778,-65.430,-43.457,-35.156,-100.586,0
1667321574.782,-74.707,-54.199,-45.898,-100.098,0
1667321574.786,-48.828,-62.012,-46.875,-89.844,0
1667321574.790,-20.996,-52.246,-23.926,-62.012,0
1667321574.794,-14.160,-45.898,-3.906,-34.180,0
1667321574.797,-64.453,-51.758,-43.457,-91.797,0
1667321574.801,-63.477,-46.387,-68.359,-121.094,0
1667321574.805,-28.320,-38.086,-54.199,-84.473,0
1667321574.809,-47.852,-35.156,-51.270,-95.215,0
1667321574.813,-67.383,-32.227,-60.547,-115.723,0
1667321574.812,-45.410,-31.250,-66.895,-98.145,0
1667321574.816,-14.160,-27.344,-52.246,-67.383,0
1667321574.820,-35.156,-33.203,-49.316,-77.148,0
1667321574.824,-70.312,-37.109,-52.734,-95.215,0
1667321574.828,-46.875,-33.691,-42.480,-81.543,0
1667321574.832,16.113,-24.414,-20.020,-29.297,0
1667321574.836,5.859,-29.297,-19.043,-23.926,0
1667321574.839,-73.242,-50.781,-58.594,-104.004,0
1667321574.843,-75.195,-45.410,-63.965,-111.816,0
1667321574.847,-20.508,-30.762,-41.992,-62.500,0
1667321574.851,-27.344,-32.715,-49.316,-69.336,0
1667321574.855,-80.566,-41.016,-62.988,-112.793,0
1667321574.874,-86.914,-42.969,-56.152,-107.910,0
1667321574.878,-37.598,-37.109,-44.922,-69.824,0
1667321574.882,-25.391,-43.945,-52.734,-81.055,0
1667321574.886,-59.082,-47.852,-58.105,-102.539,0
1667321574.890,-79.102,-46.387,-46.875,-95.703,0
1667321574.894,-35.156,-28.320,-31.738,-56.152,0
1667321574.898,-10.742,-25.879,-33.203,-51.758,0
1667321574.901,-44.922,-34.668,-49.316,-85.938,0
1667321574.905,-62.012,-29.297,-41.016,-91.797,0
1667321574.909,-34.180,-28.320,-31.250,-62.500,0
1667321574.913,-35.156,-41.016,-55.176,-71.289,0
1667321574.917,-58.594,-43.457,-60.547,-99.121,0
1667321574.917,-80.566,-34.180,-50.781,-102.539,0
1667321574.921,-83.008,-34.180,-54.688,-99.609,0
1667321574.925,-51.758,-42.480,-53.223,-83.496,0
1667321574.929,-41.992,-45.898,-50.293,-82.031,0
1667321574.933,-64.941,-44.434,-53.223,-101.562,0
1667321574.937,-83.008,-48.828,-55.176,-109.375,0
1667321574.941,-48.340,-42.480,-49.316,-85.449,0
1667321574.944,-11.230,-35.645,-45.898,-75.195,0
1667321574.948,-40.039,-32.227,-33.203,-79.102,0
1667321574.952,-63.477,-29.297,-21.973,-74.219,0
