timestamps,TP9,AF7,AF8,TP10,marker
1664560763.848,-105.469,-11.719,-42.969,-73.242,0
1664560763.852,25.391,-15.137,-40.039,1.953,0
1664560763.856,70.312,-15.625,-37.598,34.180,0
1664560763.860,-58.594,-15.625,-38.574,-42.480,0
1664560763.864,-120.117,-20.508,-36.621,-86.426,0
1664560763.868,-8.789,-22.949,-33.691,-14.160,0
1664560763.872,84.961,-22.949,-34.668,47.363,0
1664560763.875,-27.832,-28.320,-46.387,-25.391,0
1664560763.879,-126.953,-27.832,-48.828,-89.355,0
1664560763.883,-48.340,-26.367,-40.039,-38.086,0
1664560763.887,69.824,-31.738,-41.504,32.227,0
1664560763.891,12.695,-32.227,-44.434,-2.930,0
1664560763.893,-102.051,-26.855,-40.527,-62.988,0
1664560763.897,-79.590,-26.855,-34.180,-44.922,0
1664560763.901,46.387,-33.203,-41.016,21.973,0
1664560763.905,43.945,-36.621,-40.039,19.043,0
1664560763.909,-80.078,-31.250,-25.879,-50.293,0
1664560763.913,-102.051,-18.555,-19.531,-53.711,0
1664560763.917,20.020,-19.531,-24.902,13.672,0
1664560763.920,58.594,-31.738,-34.180,23.926,0
1664560763.924,-71.289,-36.133,-29.785,-48.340,0
1664560763.928,-149.902,-41.504,-18.066,-85.938,0
1664560763.932,-75.684,-51.270,-29.785,-46.387,0
1664560763.936,31.250,-47.363,-29.785,8.789,0
1664560763.953,-41.016,-36.133,-8.301,-25.391,0
1664560763.957,-179.199,-29.297,-22.461,-116.699,0
1664560763.961,-153.320,-28.320,-37.598,-122.559,0
1664560763.965,-25.391,-33.691,-32.227,-56.152,0
1664560763.969,-80.566,-34.668,-28.809,-92.773,0
1664560763.973,-221.680,-23.438,-20.996,-182.129,0
1664560763.977,-239.746,-23.438,-28.809,-203.125,0
1664560763.980,-140.137,-30.762,-49.316,-163.086,0
1664560763.984,-120.605,-23.926,-42.480,-156.250,0
1664560763.988,-255.859,-26.855,-37.109,-231.934,0
1664560763.992,-327.148,-37.109,-46.387,-284.668,0
1664560763.996,-196.777,-27.832,-45.410,-218.750,0
1664560763.998,-104.980,-29.297,-51.270,-174.316,0
1664560764.002,-220.215,-37.598,-51.270,-238.281,0
1664560764.006,-310.547,-41.016,-47.363,-284.180,0
1664560764.010,-228.516,-49.316,-56.152,-237.305,0
1664560764.014,-101.562,-43.457,-58.594,-162.598,0
1664560764.018,-162.598,-36.621,-58.594,-192.871,0
1664560764.022,-262.695,-35.156,-63.477,-248.535,0
1664560764.025,-213.379,-37.109,-72.266,-218.750,0
1664560764.029,-62.500,-36.621,-79.102,-116.211,0
1664560764.033,-67.383,-43.945,-85.938,-104.980,0
1664560764.037,-199.219,-49.805,-85.938,-183.594,0
1664560764.041,-197.754,-41.504,-75.195,-179.688,0
1664560764.045,-45.898,-37.598,-76.172,-94.727,0
1664560764.049,11.719,-37.109,-77.148,-55.176,0
1664560764.053,-106.934,-40.527,-77.148,-108.398,0
1664560764.057,-153.320,-41.992,-74.707,-127.930,0
1664560764.061,-23.926,-42.969,-69.336,-41.016,0
1664560764.065,74.707,-45.898,-74.707,20.020,0
1664560764.069,-32.227,-50.293,-84.961,-46.387,0
1664560764.072,-121.094,-49.316,-77.148,-78.613,0
1664560764.076,-29.297,-50.293,-70.312,-3.418,0
1664560764.080,84.473,-67.871,-85.938,59.082,0
1664560764.084,30.762,-63.965,-77.637,35.645,0
1664560764.088,-70.312,-55.664,-62.988,-16.602,0
1664560764.088,-39.062,-64.453,-67.871,-3.906,0
1664560764.092,99.609,-68.359,-75.195,74.219,0
1664560764.096,102.051,-60.059,-69.824,78.613,0
1664560764.100,-31.738,-59.082,-66.895,8.789,0
1664560764.104,-52.734,-63.477,-69.824,-0.488,0
1664560764.108,87.402,-63.965,-69.336,80.078,0
1664560764.112,131.836,-66.895,-74.219,107.422,0
1664560764.115,15.625,-63.477,-71.289,53.711,0
1664560764.119,-54.199,-63.965,-80.078,20.020,0
1664560764.123,38.086,-74.707,-101.074,51.270,0
1664560764.127,161.133,-67.871,-93.262,117.188,0
1664560764.131,62.988,-63.477,-90.332,66.406,0
1664560764.133,-54.199,-66.895,-99.609,-0.488,0
1664560764.137,16.602,-68.359,-104.492,43.945,0
1664560764.141,160.645,-62.012,-99.609,124.512,0
1664560764.145,102.539,-58.105,-94.238,97.656,0
1664560764.149,-39.551,-60.059,-96.191,22.949,0
1664560764.153,-13.184,-59.570,-94.727,36.621,0
1664560764.157,129.395,-59.570,-98.633,112.305,0
1664560764.160,133.301,-60.059,-98.633,112.305,0
1664560764.164,-20.020,-70.312,-106.445,14.648,0
1664560764.168,-60.059,-65.918,-103.027,-5.859,0
1664560764.172,78.125,-62.500,-98.633,81.543,0
1664560764.176,142.090,-65.918,-103.516,110.352,0
1664560764.178,18.066,-63.965,-105.957,27.344,0
1664560764.182,-61.523,-60.547,-103.516,-16.602,0
1664560764.186,41.992,-56.641,-99.121,51.270,0
1664560764.190,154.297,-58.594,-101.074,113.770,0
1664560764.194,63.477,-53.223,-92.773,57.617,0
1664560764.198,-53.711,-51.270,-87.402,-9.277,0
1664560764.202,-1.465,-58.105,-87.891,32.715,0
1664560764.205,126.465,-62.012,-94.727,102.539,0
1664560764.209,77.637,-66.895,-105.469,61.523,0
1664560764.213,-51.270,-55.176,-91.797,-1.953,0
1664560764.217,-46.875,-49.316,-82.031,2.930,0
1664560764.221,89.355,-56.152,-82.031,80.078,0
1664560764.223,105.957,-57.129,-82.520,83.496,0
1664560764.227,-30.273,-53.711,-78.125,4.883,0
1664560764.231,-86.426,-57.129,-80.566,-24.902,0
1664560764.235,34.668,-64.453,-88.867,34.668,0
1664560764.239,126.953,-60.547,-83.496,83.496,0
1664560764.243,19.531,-46.875,-67.383,33.691,0
1664560764.247,-81.055,-47.852,-67.383,-15.625,0
1664560764.250,-7.324,-60.059,-81.543,11.719,0
1664560764.254,122.070,-54.688,-80.566,71.289,0
1664560764.258,55.664,-43.945,-67.383,43.457,0
1664560764.262,-73.730,-44.434,-62.988,-22.461,0
1664560764.266,-37.109,-53.223,-74.219,-8.301,0
1664560764.268,111.816,-49.805,-76.660,76.172,0
1664560764.272,103.516,-40.527,-63.965,79.102,0
1664560764.276,-31.250,-47.852,-60.059,-1.465,0
1664560764.280,-61.035,-52.734,-64.941,-21.484,0
1664560764.284,84.473,-46.387,-60.547,61.035,0
1664560764.288,141.602,-39.551,-51.758,95.215,0
1664560764.292,-5.371,-39.551,-54.199,10.254,0
1664560764.295,-86.426,-46.387,-59.082,-40.527,0
1664560764.299,30.273,-46.875,-65.430,30.273,0
1664560764.303,141.113,-40.527,-63.965,90.820,0
1664560764.307,28.320,-45.898,-62.988,21.973,0
1664560764.311,-83.984,-51.758,-62.988,-49.805,0
1664560764.328,-0.977,-51.758,-55.664,-4.395,0
1664560764.332,131.348,-56.152,-56.152,69.824,0
1664560764.336,69.824,-55.664,-54.688,36.621,0
1664560764.340,-59.570,-50.293,-44.922,-31.738,0
1664560764.344,-41.992,-50.781,-43.945,-18.555,0
1664560764.348,105.469,-53.711,-46.875,61.523,0
1664560764.352,101.074,-56.641,-45.898,56.641,0
1664560764.355,-48.828,-61.523,-48.828,-32.715,0
1664560764.359,-73.730,-56.152,-44.434,-43.945,0
1664560764.363,69.336,-53.711,-43.945,40.039,0
1664560764.367,114.746,-62.988,-53.223,55.664,0
1664560764.371,-19.043,-61.523,-46.875,-18.066,0
1664560764.373,-90.820,-61.035,-37.598,-52.734,0
1664560764.377,15.625,-62.500,-36.621,5.859,0
1664560764.381,123.535,-61.035,-40.039,63.477,0
1664560764.385,24.414,-56.152,-35.645,12.695,0
1664560764.389,-92.773,-51.270,-28.809,-48.340,0
1664560764.393,-29.785,-56.152,-33.691,-11.230,0
1664560764.397,109.375,-63.477,-40.039,65.918,0
1664560764.400,68.359,-57.129,-32.715,38.086,0
1664560764.404,-51.270,-41.016,-25.391,-24.414,0
1664560764.408,-36.621,-46.875,-31.250,-7.812,0
1664560764.412,98.145,-62.500,-33.691,58.594,0
1664560764.416,112.305,-51.270,-17.578,68.848,0
1664560764.418,-31.738,-41.992,-8.301,-6.836,0
1664560764.422,-82.031,-47.363,-13.184,-36.133,0
1664560764.426,56.152,-48.828,-10.742,43.945,0
1664560764.430,136.230,-48.828,-5.371,87.402,0
1664560764.434,9.277,-42.969,-2.441,15.137,0
1664560764.438,-81.055,-43.457,-6.836,-35.645,0
1664560764.442,9.277,-49.805,-19.531,12.695,0
1664560764.445,147.461,-41.016,-14.160,91.309,0
1664560764.449,81.543,-32.715,-3.418,59.570,0
1664560764.453,-64.941,-45.898,-20.508,-35.645,0
1664560764.457,-26.855,-47.852,-24.902,-9.766,0
1664560764.461,136.719,-43.945,-15.137,92.773,0
1664560764.463,117.676,-40.527,-12.695,76.660,0
1664560764.467,-23.926,-39.062,-17.090,-8.301,0
1664560764.471,-27.832,-41.992,-17.090,-13.672,0
1664560764.475,122.070,-37.109,-14.160,69.824,0
1664560764.479,165.039,-30.762,-13.672,98.633,0
1664560764.483,27.344,-28.809,-7.812,16.602,0
1664560764.487,-41.016,-30.762,-8.789,-26.367,0
1664560764.490,88.379,-25.879,-7.324,63.477,0
1664560764.494,188.477,-29.785,-20.996,114.746,0
1664560764.498,77.637,-39.551,-31.738,43.945,0
1664560764.502,-37.109,-37.598,-11.719,-13.672,0
1664560764.506,5.371,-46.875,-9.766,0.000,0
1664560764.508,127.930,-57.129,-21.484,61.035,0
1664560764.512,71.777,-46.387,-15.625,29.785,0
1664560764.516,-56.641,-33.691,-0.977,-41.016,0
1664560764.520,-29.785,-41.504,-6.348,-26.855,0
1664560764.524,107.422,-46.387,-15.625,50.293,0
1664560764.528,103.516,-41.504,-8.301,46.387,0
1664560764.532,-34.180,-38.574,-1.953,-30.762,0
1664560764.535,-64.941,-34.668,-6.348,-37.598,0
1664560764.539,66.406,-43.457,-24.902,33.203,0
1664560764.543,119.141,-44.434,-24.414,54.199,0
1664560764.547,-12.695,-34.180,-13.672,-14.648,0
1664560764.551,-95.703,-27.344,-12.207,-53.223,0
1664560764.569,13.672,-27.832,-14.648,10.254,0
1664560764.573,129.395,-26.367,-11.719,74.219,0
1664560764.577,17.578,-25.391,-11.719,10.254,0
1664560764.581,-110.840,-32.227,-20.020,-67.383,0
1664560764.585,-44.434,-35.645,-21.973,-29.297,0
1664560764.589,106.934,-23.926,-18.066,56.152,0
1664560764.593,59.082,-14.648,-10.254,38.574,0
1664560764.596,-93.750,-21.484,-8.789,-47.852,0
1664560764.600,-95.215,-27.832,-18.066,-61.035,0
1664560764.604,63.477,-19.043,-11.230,32.227,0
1664560764.608,69.336,-19.531,-10.742,35.156,0
1664560764.612,-84.473,-24.902,-14.648,-57.129,0
1664560764.600,-119.629,-21.973,-12.695,-73.730,0
1664560764.604,26.367,-20.020,-12.695,6.348,0
1664560764.608,102.051,-16.113,-8.789,51.270,0
1664560764.612,-37.598,-12.207,-8.301,-20.020,0
1664560764.616,-141.113,-18.555,-16.113,-79.590,0
1664560764.620,-34.180,-19.043,-17.578,-13.184,0
1664560764.624,85.449,-17.090,-14.648,50.781,0
1664560764.627,-23.438,-16.602,-16.602,-15.137,0
1664560764.631,-150.879,-14.160,-13.672,-85.449,0
1664560764.635,-83.008,-7.324,-5.371,-40.527,0
1664560764.639,68.359,-7.812,-5.859,46.387,0
1664560764.643,12.207,-19.043,-18.555,6.348,0
1664560764.644,-129.883,-13.672,-8.789,-77.148,0
1664560764.648,-123.047,-12.695,-8.789,-68.848,0
1664560764.652,20.020,-23.926,-24.902,11.230,0
1664560764.656,45.898,-23.926,-26.855,14.648,0
1664560764.660,-87.402,-17.090,-20.996,-59.570,0
1664560764.664,-133.789,-14.648,-12.207,-68.359,0
1664560764.668,-8.301,-21.973,-18.066,1.465,0
1664560764.671,75.684,-22.461,-26.855,32.227,0
1664560764.675,-42.969,-16.113,-23.926,-43.457,0
1664560764.679,-140.625,-18.555,-20.996,-95.215,0
1664560764.683,-56.641,-25.879,-32.227,-41.016,0
1664560764.687,77.148,-21.973,-32.227,33.691,0
1664560764.704,13.184,-11.230,-17.090,2.930,0
1664560764.708,-107.422,-7.324,-12.207,-68.359,0
1664560764.712,-76.660,-9.766,-21.484,-55.176,0
1664560764.716,56.641,-13.184,-35.645,19.043,0
1664560764.720,44.434,-6.348,-29.785,15.625,0
1664560764.724,-94.727,2.441,-19.531,-56.152,0
1664560764.728,-125.000,-9.766,-35.156,-75.195,0
1664560764.731,15.137,-18.066,-47.363,2.930,0
1664560764.735,74.707,-7.812,-28.809,44.434,0
1664560764.739,-68.359,-5.371,-22.461,-33.203,0
1664560764.743,-158.691,-15.625,-40.039,-91.309,0
1664560764.747,-32.715,-14.160,-35.156,-20.508,0
1664560764.748,76.172,-8.301,-22.949,49.316,0
1664560764.752,-44.922,-10.254,-21.484,-20.020,0
1664560764.756,-158.203,-13.672,-23.438,-89.355,0
1664560764.760,-80.078,-14.648,-27.344,-44.434,0
1664560764.764,56.641,-12.207,-25.391,35.645,0
1664560764.768,-12.695,-10.254,-17.578,-1.465,0
1664560764.772,-158.691,-13.672,-21.973,-89.355,0
1664560764.775,-138.184,-22.461,-31.738,-81.543,0
1664560764.779,17.090,-23.926,-29.785,11.230,0
1664560764.783,3.418,-27.832,-31.250,2.930,0
1664560764.787,-144.531,-28.809,-39.062,-92.773,0
1664560764.791,-157.227,-20.508,-34.180,-98.145,0
1664560764.795,-19.531,-29.297,-37.598,-16.113,0
1664560764.799,33.203,-33.203,-41.504,11.719,0
1664560764.803,-98.633,-28.320,-32.715,-66.406,0
1664560764.807,-169.922,-27.344,-27.832,-102.051,0
1664560764.811,-52.734,-31.738,-31.250,-39.062,0
1664560764.815,59.082,-31.250,-29.785,22.949,0
1664560764.819,-46.387,-34.668,-32.227,-40.039,0
1664560764.822,-144.531,-31.250,-22.949,-98.145,0
1664560764.826,-71.289,-29.297,-20.508,-45.410,0
1664560764.830,54.688,-44.434,-43.457,11.719,0
1664560764.834,12.695,-40.527,-41.504,-19.531,0
1664560764.838,-113.770,-32.227,-34.668,-85.938,0
1664560764.838,-99.121,-28.809,-37.109,-70.801,0
1664560764.842,43.457,-32.715,-39.062,7.812,0
1664560764.846,63.477,-33.691,-37.598,15.137,0
1664560764.850,-78.613,-25.391,-28.809,-53.711,0
1664560764.854,-104.492,-28.320,-29.785,-63.965,0
1664560764.858,45.898,-32.715,-37.109,18.555,0
1664560764.862,90.820,-27.344,-37.598,35.156,0
1664560764.865,-23.438,-16.602,-25.391,-24.902,0
1664560764.869,-111.816,-21.484,-27.832,-72.266,0
1664560764.873,-21.484,-32.227,-38.086,-35.645,0
1664560764.877,109.375,-20.996,-27.832,42.480,0
1664560764.881,21.973,-13.184,-26.855,-4.395,0
1664560764.883,-100.098,-17.578,-29.297,-74.219,0
1664560764.887,-45.410,-20.020,-28.809,-38.574,0
1664560764.891,104.492,-19.531,-21.973,47.363,0
1664560764.895,74.707,-16.602,-19.043,24.414,0
1664560764.899,-80.566,-21.973,-27.832,-62.500,0
1664560764.903,-89.355,-22.461,-24.414,-60.059,0
1664560764.907,64.941,-20.508,-23.438,26.367,0
1664560764.910,92.285,-23.438,-22.949,43.457,0
1664560764.914,-58.105,-30.762,-24.414,-44.434,0
1664560764.918,-114.746,-34.180,-29.785,-77.148,0
1664560764.922,26.367,-28.320,-23.926,7.812,0
1664560764.926,116.699,-23.438,-20.508,61.035,0
1664560764.930,-18.555,-33.203,-33.691,-24.414,0
1664560764.934,-121.094,-33.691,-31.738,-78.613,0
1664560764.938,-28.320,-33.203,-27.344,-21.973,0
1664560764.942,95.703,-41.992,-35.645,31.738,0
1664560764.946,13.184,-40.527,-34.668,-20.508,0
1664560764.950,-109.863,-34.180,-26.367,-83.496,0
1664560764.954,-66.406,-32.715,-21.973,-49.805,0
1664560764.957,67.871,-41.504,-27.832,32.715,0
1664560764.961,44.434,-50.293,-41.016,18.555,0
1664560764.965,-93.262,-42.480,-40.527,-66.895,0
1664560764.969,-121.582,-38.574,-37.598,-86.914,0
1664560764.973,14.160,-41.504,-38.574,-4.395,0
1664560764.973,59.082,-39.551,-38.086,16.602,0
1664560764.977,-71.289,-37.598,-30.273,-56.152,0
1664560764.981,-136.230,-41.992,-28.320,-86.914,0
1664560764.985,-23.438,-47.852,-35.645,-20.996,0
1664560764.989,82.031,-47.363,-38.086,34.668,0
1664560764.993,-15.625,-37.109,-32.227,-15.625,0
1664560764.997,-118.164,-31.250,-30.762,-64.941,0
1664560765.000,-53.711,-38.086,-37.109,-33.203,0
1664560765.004,83.008,-35.156,-35.156,39.062,0
1664560765.008,32.227,-29.785,-31.738,15.625,0
1664560765.012,-98.145,-27.832,-28.809,-53.223,0
1664560765.016,-79.590,-34.180,-33.691,-47.363,0
1664560765.018,67.871,-31.738,-36.621,34.668,0
1664560765.022,74.219,-27.832,-37.109,39.062,0
1664560765.026,-69.336,-29.785,-38.574,-53.223,0
1664560765.030,-108.887,-27.832,-41.504,-81.055,0
1664560765.034,36.133,-25.879,-41.504,5.859,0
1664560765.038,103.516,-23.926,-39.551,45.410,0
1664560765.042,-33.203,-30.273,-46.387,-36.133,0
1664560765.045,-122.559,-35.645,-54.199,-88.867,0
1664560765.049,-20.508,-36.133,-55.664,-31.250,0
1664560765.053,104.492,-29.785,-41.016,48.828,0
1664560765.057,8.301,-28.809,-39.062,-6.836,0
1664560765.061,-114.746,-37.109,-55.664,-86.426,0
1664560765.081,-45.410,-31.738,-48.340,-35.645,0
1664560765.085,94.238,-29.297,-42.480,47.852,0
1664560765.089,43.457,-35.156,-52.246,12.695,0
1664560765.093,-93.750,-33.691,-53.223,-63.965,0
1664560765.097,-82.031,-26.367,-47.363,-52.734,0
1664560765.101,63.965,-25.879,-51.270,27.832,0
1664560765.105,67.871,-35.156,-58.594,20.020,0
1664560765.108,-75.684,-37.598,-59.570,-66.895,0
1664560765.112,-107.910,-26.367,-47.363,-78.125,0
1664560765.116,28.320,-24.414,-46.387,2.441,0
1664560765.120,88.379,-35.645,-55.176,22.461,0
1664560765.124,-31.250,-30.762,-49.316,-50.781,0
1664560765.124,-108.887,-26.367,-44.434,-84.961,0
1664560765.128,-20.508,-28.809,-49.805,-27.344,0
1664560765.132,95.703,-23.438,-51.758,41.016,0
1664560765.136,11.719,-22.949,-47.852,-3.906,0
1664560765.140,-109.375,-22.461,-48.340,-75.684,0
1664560765.144,-60.059,-25.391,-46.387,-46.387,0
1664560765.148,74.707,-32.227,-49.316,24.902,0
1664560765.151,43.457,-27.344,-46.387,3.418,0
1664560765.155,-78.125,-17.090,-27.344,-53.711,0
1664560765.159,-93.750,-22.949,-34.180,-63.477,0
1664560765.163,27.832,-34.180,-54.199,-8.301,0
1664560765.167,78.613,-19.043,-38.086,22.461,0
1664560765.168,-51.758,-14.160,-35.645,-49.805,0
1664560765.172,-122.559,-23.926,-48.340,-86.426,0
1664560765.176,2.441,-20.508,-38.574,-10.254,0
1664560765.180,98.145,-19.531,-34.668,43.945,0
1664560765.184,-19.043,-26.367,-38.574,-27.344,0
1664560765.188,-118.652,-26.367,-35.645,-79.102,0
1664560765.192,-46.387,-31.738,-41.992,-35.645,0
1664560765.195,82.520,-27.344,-39.062,34.180,0
1664560765.199,24.902,-20.020,-26.855,11.719,0
1664560765.203,-106.445,-27.344,-34.180,-71.777,0
1664560765.207,-66.895,-24.414,-35.645,-60.059,0
1664560765.211,80.078,-14.160,-29.785,33.203,0
1664560765.213,60.547,-14.160,-29.297,23.438,0
1664560765.217,-81.543,-21.973,-35.156,-71.289,0
1664560765.221,-104.492,-22.949,-35.156,-79.590,0
1664560765.225,36.133,-25.391,-35.156,7.812,0
1664560765.229,85.449,-30.273,-40.039,31.250,0
1664560765.233,-43.457,-29.785,-37.598,-46.875,0
1664560765.237,-115.723,-29.785,-33.203,-89.355,0
1664560765.240,-3.906,-28.320,-25.879,-12.207,0
1664560765.244,87.891,-32.227,-32.715,41.992,0
1664560765.248,-28.320,-36.133,-46.387,-37.109,0
1664560765.252,-122.559,-23.926,-35.645,-87.402,0
1664560765.256,-54.199,-20.020,-37.109,-43.945,0
1664560765.259,71.777,-26.367,-49.805,20.508,0
1664560765.263,18.555,-28.809,-43.457,-13.672,0
1664560765.267,-109.863,-26.855,-34.668,-84.961,0
1664560765.271,-92.773,-29.297,-40.039,-75.684,0
1664560765.275,48.828,-32.227,-43.457,3.906,0
1664560765.279,71.289,-21.973,-35.645,20.996,0
1664560765.283,-62.988,-17.578,-29.785,-53.223,0
1664560765.286,-122.559,-22.949,-23.926,-80.566,0
1664560765.290,-14.160,-38.086,-41.992,-29.297,0
1664560765.294,53.223,-38.574,-52.734,0.977,0
1664560765.298,-61.523,-28.320,-43.457,-55.176,0
1664560765.302,-145.508,-34.180,-47.363,-96.680,0
1664560765.304,-51.758,-36.621,-53.223,-45.898,0
1664560765.308,62.988,-33.203,-47.363,12.695,0
1664560765.312,-18.555,-32.715,-34.180,-27.344,0
1664560765.316,-131.348,-32.227,-35.645,-90.332,0
1664560765.320,-74.219,-31.738,-40.527,-64.453,0
1664560765.324,64.453,-31.738,-35.156,13.672,0
1664560765.328,38.086,-24.414,-21.484,11.230,0
1664560765.331,-106.934,-31.250,-28.320,-70.312,0
1664560765.335,-116.211,-39.062,-43.457,-82.520,0
1664560765.339,39.551,-31.250,-36.621,5.859,0
1664560765.343,47.852,-33.203,-38.086,5.371,0
1664560765.347,-88.867,-32.715,-42.480,-76.172,0
1664560765.349,-134.277,-28.320,-39.062,-100.586,0
1664560765.353,-2.441,-19.043,-26.367,-18.555,0
1664560765.357,74.707,-22.949,-28.809,27.344,0
1664560765.361,-49.805,-31.738,-38.086,-46.875,0
1664560765.365,-135.254,-24.902,-31.738,-93.750,0
1664560765.369,-33.691,-20.020,-26.855,-25.879,0
1664560765.373,88.379,-25.879,-26.367,46.387,0
1664560765.376,-0.977,-33.203,-35.156,-17.578,0
1664560765.380,-116.699,-26.367,-37.109,-87.402,0
1664560765.384,-60.547,-28.320,-29.785,-45.898,0
1664560765.388,83.984,-31.250,-28.809,32.715,0
1664560765.392,61.035,-24.902,-27.344,9.766,0
1664560765.395,-68.848,-20.508,-18.066,-62.012,0
1664560765.399,-82.031,-26.367,-20.020,-70.312,0
1664560765.403,50.293,-35.645,-30.762,-3.906,0
1664560765.407,86.426,-36.133,-35.645,17.090,0
1664560765.411,-45.410,-32.227,-31.738,-50.781,0
1664560765.415,-106.445,-30.273,-24.902,-67.871,0
1664560765.419,2.441,-41.992,-38.086,-6.836,0
1664560765.422,84.473,-45.410,-42.969,27.344,0
1664560765.426,-26.367,-35.156,-30.273,-38.086,0
1664560765.430,-121.094,-28.320,-22.949,-81.055,0
1664560765.434,-52.246,-32.715,-31.250,-36.621,0
1664560765.438,68.359,-35.156,-37.109,22.461,0
1664560765.454,19.531,-32.715,-27.344,0.488,0
1664560765.458,-100.098,-32.227,-21.973,-63.965,0
1664560765.462,-77.148,-35.645,-21.484,-44.922,0
1664560765.466,58.105,-40.527,-23.926,33.691,0
1664560765.470,58.105,-33.691,-14.160,31.250,0
1664560765.474,-68.359,-22.461,-4.883,-34.180,0
1664560765.478,-104.004,-30.762,-14.160,-59.082,0
1664560765.481,30.762,-38.574,-21.484,5.859,0
1664560765.485,94.727,-29.297,-15.625,47.852,0
1664560765.489,-34.668,-26.367,-14.648,-17.578,0
1664560765.493,-120.605,-38.574,-30.273,-78.125,0
1664560765.497,-10.254,-38.086,-34.180,-17.578,0
1664560765.499,102.539,-25.879,-26.367,50.293,0
1664560765.503,5.371,-29.297,-25.391,-0.977,0
1664560765.507,-104.492,-37.598,-32.227,-69.336,0
1664560765.511,-43.945,-34.180,-30.273,-39.062,0
1664560765.515,89.844,-32.715,-26.367,44.434,0
1664560765.519,41.504,-32.715,-23.926,18.066,0
1664560765.523,-96.191,-35.645,-27.832,-64.941,0
1664560765.526,-85.938,-39.551,-34.668,-55.664,0
1664560765.530,60.547,-39.062,-27.344,37.598,0
1664560765.534,52.734,-50.293,-34.180,23.438,0
1664560765.538,-100.098,-50.293,-46.387,-76.660,0
1664560765.542,-129.883,-38.086,-37.598,-87.402,0
1664560765.544,2.930,-43.945,-41.016,-15.137,0
1664560765.548,72.266,-41.992,-41.992,20.508,0
1664560765.552,-46.387,-39.551,-39.062,-53.711,0
1664560765.556,-128.418,-41.016,-35.645,-98.633,0
1664560765.560,-26.855,-40.527,-33.691,-35.645,0
1664560765.564,86.426,-40.039,-37.109,26.855,0
1664560765.568,-11.230,-40.039,-41.016,-30.273,0
1664560765.571,-124.512,-37.598,-37.598,-93.750,0
1664560765.575,-65.430,-38.086,-31.738,-55.664,0
1664560765.579,59.570,-42.969,-44.434,0.488,0
1664560765.583,25.879,-41.504,-49.805,-29.785,0
1664560765.587,-96.191,-38.574,-40.527,-88.867,0
1664560765.588,-101.562,-41.016,-42.480,-86.426,0
1664560765.592,32.227,-45.410,-48.340,-16.113,0
1664560765.596,66.406,-34.180,-38.086,4.395,0
1664560765.600,-60.547,-28.320,-24.414,-62.012,0
1664560765.604,-113.281,-33.203,-27.832,-88.379,0
1664560765.608,3.418,-36.621,-35.645,-20.508,0
1664560765.612,80.078,-41.016,-36.133,18.555,0
1664560765.615,-28.320,-32.715,-24.414,-38.086,0
1664560765.619,-122.070,-34.180,-33.203,-91.797,0
1664560765.623,-41.016,-45.898,-44.922,-52.734,0
1664560765.627,96.191,-37.598,-31.738,26.367,0
1664560765.631,19.043,-31.250,-33.691,-18.555,0
1664560765.633,-110.352,-38.574,-39.551,-91.309,0
1664560765.637,-71.289,-42.480,-41.016,-67.383,0
1664560765.641,71.289,-38.086,-39.062,16.602,0
1664560765.645,50.293,-40.527,-38.086,5.859,0
1664560765.649,-83.984,-40.039,-40.527,-67.383,0
1664560765.653,-92.285,-37.598,-40.527,-72.266,0
1664560765.657,46.387,-40.527,-42.480,2.441,0
1664560765.660,81.055,-44.922,-46.387,26.367,0
1664560765.664,-73.730,-50.293,-56.152,-71.777,0
1664560765.668,-133.789,-37.598,-51.270,-107.422,0
1664560765.672,-6.348,-33.691,-47.363,-25.391,0
1664560765.676,88.379,-38.574,-44.434,25.879,0
1664560765.678,-27.832,-41.504,-46.875,-42.480,0
1664560765.682,-130.859,-44.922,-50.293,-102.539,0
1664560765.686,-47.363,-42.480,-45.410,-50.293,0
1664560765.690,77.148,-49.316,-50.293,18.555,0
1664560765.694,11.719,-52.734,-52.734,-16.113,0
1664560765.698,-109.375,-43.457,-51.270,-84.473,0
1664560765.702,-74.707,-34.180,-39.551,-54.199,0
1664560765.705,57.617,-41.504,-41.016,25.879,0
1664560765.709,38.574,-53.711,-53.711,-4.883,0
1664560765.713,-87.891,-42.969,-47.852,-79.102,0
1664560765.717,-122.070,-36.621,-51.270,-95.215,0
1664560765.721,8.789,-37.109,-56.152,-24.414,0
1664560765.724,71.777,-37.598,-52.734,6.836,0
1664560765.728,-43.457,-31.738,-40.527,-57.617,0
1664560765.732,-116.699,-33.203,-42.969,-95.215,0
1664560765.736,-23.438,-46.875,-57.129,-46.875,0
1664560765.740,79.590,-47.852,-59.570,6.348,0
1664560765.744,-13.184,-40.527,-48.828,-41.016,0
1664560765.748,-124.512,-45.898,-45.410,-96.680,0
1664560765.751,-79.102,-59.082,-61.035,-78.125,0
1664560765.755,54.688,-55.664,-62.012,-11.719,0
1664560765.759,21.484,-47.363,-46.875,-20.996,0
1664560765.763,-93.750,-46.387,-43.457,-73.242,0
1664560765.767,-78.125,-45.898,-52.246,-66.895,0
1664560765.769,55.664,-37.109,-58.594,-4.395,0
1664560765.773,68.359,-31.250,-56.152,2.441,0
1664560765.777,-77.148,-38.574,-59.082,-75.195,0
1664560765.781,-134.277,-40.527,-59.082,-107.910,0
1664560765.785,-1.953,-34.180,-56.641,-26.855,0
1664560765.789,76.172,-37.598,-56.152,18.066,0
1664560765.793,-46.875,-40.527,-58.105,-57.129,0
1664560765.796,-139.160,-40.039,-55.176,-101.074,0
1664560765.800,-49.805,-43.457,-52.246,-42.969,0
1664560765.804,75.684,-41.016,-48.340,31.250,0
1664560765.808,-13.672,-47.852,-55.176,-24.902,0
1664560765.812,-135.254,-51.758,-61.035,-103.027,0
1664560765.829,-74.219,-45.410,-52.246,-64.453,0
1664560765.833,62.012,-45.898,-51.758,12.207,0
1664560765.837,38.086,-43.945,-49.805,-3.418,0
1664560765.841,-85.938,-37.598,-44.922,-69.336,0
1664560765.845,-81.055,-28.809,-34.668,-58.105,0
1664560765.849,59.082,-30.273,-32.227,26.367,0
1664560765.853,77.637,-33.203,-39.062,39.062,0
1664560765.856,-61.523,-29.785,-40.039,-39.551,0
1664560765.860,-108.398,-25.879,-34.668,-65.918,0
1664560765.864,13.672,-31.738,-33.203,5.859,0
1664560765.868,83.008,-45.898,-44.434,35.156,0
1664560765.872,-25.391,-41.504,-47.363,-32.227,0
1664560765.875,-111.816,-31.738,-38.086,-74.707,0
1664560765.879,-35.156,-35.156,-40.527,-30.762,0
1664560765.883,82.520,-38.086,-53.711,30.762,0
1664560765.887,11.230,-36.133,-47.363,-1.465,0
1664560765.891,-107.422,-41.992,-41.016,-60.547,0
1664560765.895,-73.242,-42.480,-44.922,-39.551,0
1664560765.899,61.523,-35.156,-43.945,31.738,0
1664560765.902,44.922,-34.180,-43.945,17.578,0
1664560765.906,-72.754,-28.809,-32.715,-41.992,0
1664560765.910,-95.703,-33.691,-34.668,-56.641,0
1664560765.914,11.230,-47.363,-50.781,-8.789,0
1664560765.918,64.453,-36.133,-42.480,17.578,0
1664560765.919,-56.152,-27.344,-41.016,-47.852,0
1664560765.923,-130.371,-31.738,-45.410,-83.008,0
1664560765.927,-17.578,-35.645,-49.316,-20.020,0
1664560765.931,87.402,-34.668,-40.039,34.180,0
1664560765.935,-15.625,-32.715,-27.832,-28.809,0
1664560765.939,-118.652,-30.273,-29.785,-82.031,0
1664560765.943,-56.152,-37.109,-40.039,-47.852,0
1664560765.946,75.195,-31.738,-36.133,25.879,0
1664560765.950,24.414,-23.926,-26.855,9.277,0
1664560765.954,-122.070,-39.551,-38.086,-82.031,0
1664560765.958,-105.957,-41.992,-47.852,-80.566,0
1664560765.962,42.969,-34.180,-48.340,3.418,0
1664560765.964,45.898,-31.250,-41.504,4.883,0
1664560765.968,-93.750,-33.691,-39.551,-73.242,0
1664560765.972,-124.023,-29.297,-43.457,-89.355,0
1664560765.976,15.625,-26.855,-44.434,-7.812,0
1664560765.980,79.102,-29.785,-44.922,21.973,0
1664560765.984,-42.969,-28.809,-44.922,-54.688,0
1664560765.988,-125.000,-32.715,-43.945,-104.004,0
1664560765.991,-15.625,-29.297,-38.574,-34.180,0
1664560765.995,86.426,-36.621,-50.293,25.879,0
1664560765.999,-25.879,-44.922,-63.477,-48.828,0
1664560766.003,-127.441,-34.668,-52.246,-111.328,0
1664560766.007,-66.895,-34.668,-51.270,-70.312,0
1664560766.009,62.988,-38.574,-60.547,5.859,0
1664560766.013,24.414,-36.133,-52.246,-19.531,0
1664560766.017,-94.238,-35.156,-37.598,-88.867,0
1664560766.021,-92.773,-38.574,-49.316,-91.309,0
1664560766.025,36.133,-36.133,-53.223,-16.602,0
1664560766.029,60.547,-31.250,-41.992,2.930,0
1664560766.033,-72.754,-30.273,-38.574,-68.359,0
1664560766.036,-122.559,-33.203,-42.480,-92.285,0
1664560766.040,-3.418,-34.668,-52.246,-32.715,0
1664560766.044,73.730,-25.391,-45.410,7.812,0
1664560766.048,-30.273,-15.625,-33.203,-47.363,0
1664560766.052,-125.977,-21.973,-40.039,-100.098,0
1664560766.054,-49.805,-33.203,-47.852,-54.688,0
1664560766.058,71.289,-26.855,-41.504,20.020,0
1664560766.062,0.488,-18.066,-33.203,-11.230,0
1664560766.066,-112.793,-20.996,-39.062,-73.242,0
1664560766.070,-70.312,-27.832,-47.852,-47.852,0
1664560766.074,63.965,-30.762,-49.316,23.438,0
1664560766.078,36.133,-25.391,-46.387,6.348,0
1664560766.081,-104.980,-25.391,-45.898,-79.102,0
1664560766.085,-121.582,-31.250,-55.176,-96.680,0
1664560766.089,18.555,-28.320,-58.105,-18.066,0
1664560766.093,66.406,-22.461,-43.945,25.391,0
1664560766.097,-67.871,-21.484,-47.852,-53.711,0
1664560766.099,-132.812,-23.926,-53.711,-98.633,0
1664560766.103,-9.277,-25.879,-42.969,-18.555,0
1664560766.107,82.520,-21.484,-38.086,30.762,0
1664560766.111,-31.250,-17.090,-38.574,-38.086,0
1664560766.115,-127.441,-21.484,-39.062,-91.309,0
1664560766.119,-41.992,-22.461,-35.645,-34.180,0
1664560766.123,82.031,-22.461,-31.738,41.504,0
1664560766.126,-2.441,-35.156,-49.316,-20.020,0
1664560766.130,-133.301,-37.109,-56.152,-101.562,0
1664560766.134,-90.820,-25.391,-45.410,-70.312,0
1664560766.138,47.852,-28.809,-52.246,4.883,0
1664560766.142,32.227,-31.250,-61.523,-8.301,0
1664560766.143,-100.098,-27.344,-52.734,-83.008,0
1664560766.147,-115.723,-25.391,-40.527,-82.031,0
1664560766.151,16.602,-26.367,-49.316,-3.418,0
1664560766.155,54.199,-29.785,-55.664,13.184,0
1664560766.159,-69.824,-32.227,-47.363,-64.941,0
1664560766.163,-126.465,-29.297,-42.969,-90.820,0
1664560766.167,-17.578,-28.809,-51.758,-23.438,0
1664560766.170,63.965,-38.086,-68.359,11.230,0
1664560766.174,-41.016,-37.109,-65.430,-46.387,0
1664560766.178,-137.695,-36.621,-54.199,-100.098,0
1664560766.182,-79.590,-41.992,-62.500,-71.289,0
1664560766.186,52.246,-37.598,-67.383,-0.488,0
1664560766.204,11.230,-27.832,-59.570,-20.020,0
1664560766.208,-115.723,-30.273,-56.152,-86.914,0
1664560766.212,-118.652,-43.945,-55.664,-84.473,0
1664560766.216,17.578,-46.387,-52.734,-7.812,0
1664560766.220,33.203,-36.621,-47.852,-0.488,0
1664560766.224,-99.609,-35.156,-45.898,-76.172,0
1664560766.228,-141.602,-42.969,-54.199,-101.562,0
1664560766.231,-20.020,-47.363,-62.988,-33.691,0
1664560766.235,55.176,-37.109,-59.570,10.742,0
1664560766.239,-64.453,-34.180,-58.105,-50.781,0
1664560766.243,-159.180,-42.480,-68.848,-106.934,0
1664560766.247,-54.688,-36.621,-67.383,-41.504,0
1664560766.249,59.082,-34.180,-64.453,20.996,0
1664560766.253,-33.691,-31.738,-63.477,-41.504,0
1664560766.257,-147.949,-30.273,-59.082,-108.887,0
1664560766.261,-94.238,-34.180,-55.176,-77.148,0
1664560766.265,43.945,-35.645,-60.059,4.395,0
1664560766.269,11.230,-36.133,-60.059,-12.695,0
1664560766.273,-116.211,-32.227,-54.688,-82.520,0
1664560766.276,-112.793,-24.902,-52.734,-75.195,0
1664560766.280,39.062,-22.949,-41.992,18.066,0
1664560766.284,53.711,-29.785,-44.922,23.438,0
1664560766.288,-96.191,-29.785,-59.082,-75.195,0
1664560766.292,-138.672,-24.414,-49.805,-91.797,0
1664560766.293,-10.254,-27.344,-47.852,-19.043,0
1664560766.297,66.895,-24.902,-56.641,17.090,0
1664560766.301,-52.734,-21.973,-58.594,-50.293,0
1664560766.305,-137.695,-20.508,-53.223,-95.215,0
1664560766.309,-43.457,-22.461,-54.199,-41.504,0
1664560766.313,77.148,-22.461,-56.641,21.484,0
1664560766.317,-4.395,-20.508,-53.711,-29.785,0
1664560766.320,-120.117,-18.066,-47.852,-90.820,0
1664560766.324,-78.125,-21.973,-51.270,-56.641,0
1664560766.328,47.363,-28.320,-64.941,0.000,0
1664560766.332,26.855,-22.949,-55.176,-11.230,0
1664560766.336,-104.492,-21.973,-48.340,-80.078,0
1664560766.339,-118.164,-22.949,-50.293,-84.473,0
1664560766.343,16.113,-28.320,-49.316,-6.836,0
1664560766.347,54.199,-28.320,-44.922,12.207,0
1664560766.351,-69.336,-20.508,-41.504,-55.664,0
1664560766.355,-129.395,-20.020,-46.875,-86.914,0
1664560766.359,-15.625,-20.508,-47.363,-20.508,0
1664560766.363,64.941,-23.438,-46.875,18.066,0
1664560766.366,-44.434,-18.066,-38.086,-36.621,0
1664560766.370,-148.926,-18.555,-37.598,-90.820,0
1664560766.374,-84.473,-33.691,-50.293,-69.824,0
1664560766.378,51.758,-29.785,-44.922,4.883,0
1664560766.382,-10.254,-24.902,-41.504,-30.762,0
1664560766.384,-137.207,-28.320,-46.875,-104.980,0
1664560766.388,-103.516,-36.621,-52.246,-84.961,0
1664560766.392,38.086,-39.551,-56.152,-4.395,0
1664560766.396,29.297,-32.227,-57.129,-4.883,0
1664560766.400,-99.609,-32.227,-59.082,-84.473,0
1664560766.404,-118.164,-31.250,-57.129,-98.633,0
1664560766.408,10.742,-29.785,-55.664,-24.414,0
1664560766.411,64.453,-28.320,-53.223,7.812,0
1664560766.415,-75.684,-32.227,-60.547,-81.055,0
1664560766.419,-150.391,-29.297,-60.547,-121.582,0
1664560766.423,-36.621,-27.832,-52.734,-45.410,0
1664560766.427,62.988,-29.785,-58.105,3.418,0
1664560766.429,-41.504,-29.785,-60.059,-55.176,0
1664560766.433,-151.367,-29.297,-55.664,-111.328,0
1664560766.437,-83.496,-31.738,-57.129,-63.965,0
1664560766.441,39.551,-40.039,-72.266,-3.906,0
1664560766.445,-5.859,-39.551,-75.684,-42.969,0
1664560766.449,-128.418,-33.691,-64.453,-104.492,0
1664560766.453,-113.770,-27.832,-53.223,-85.449,0
1664560766.456,28.320,-28.809,-57.617,-9.277,0
1664560766.460,22.461,-37.109,-70.312,-25.879,0
1664560766.464,-110.352,-31.738,-60.059,-99.121,0
1664560766.468,-137.695,-26.855,-53.711,-105.957,0
1664560766.472,-7.324,-24.414,-55.664,-33.691,0
1664560766.474,54.199,-23.926,-62.500,-5.859,0
1664560766.478,-60.059,-23.438,-58.105,-65.918,0
1664560766.482,-145.508,-27.832,-55.664,-103.516,0
1664560766.486,-56.152,-38.574,-68.848,-57.129,0
1664560766.490,53.223,-36.133,-66.406,0.488,0
1664560766.494,-35.156,-30.762,-58.594,-39.062,0
1664560766.498,-144.531,-35.645,-67.871,-102.051,0
1664560766.501,-103.027,-47.363,-79.590,-92.285,0
1664560766.505,30.762,-51.270,-83.984,-19.043,0
1664560766.509,6.836,-39.551,-73.730,-23.926,0
1664560766.513,-114.258,-33.203,-61.523,-84.961,0
1664560766.517,-135.254,-43.945,-79.102,-102.539,0
1664560766.519,-4.883,-50.293,-84.473,-36.133,0
1664560766.523,28.320,-48.828,-71.777,-14.648,0
1664560766.527,-103.516,-50.781,-72.266,-86.914,0
1664560766.531,-157.715,-49.805,-73.242,-115.234,0
1664560766.535,-32.227,-41.992,-67.383,-42.969,0
1664560766.539,64.453,-35.645,-60.547,17.578,0
1664560766.543,-47.852,-37.598,-62.988,-49.316,0
1664560766.546,-150.879,-44.922,-69.336,-114.258,0
1664560766.550,-66.406,-39.551,-64.941,-61.035,0
1664560766.554,67.871,-30.762,-57.617,17.578,0
1664560766.558,-8.789,-35.156,-61.523,-31.738,0
1664560766.562,-140.625,-41.016,-64.941,-110.352,0
1664560766.579,-97.168,-37.598,-62.012,-82.520,0
1664560766.583,46.875,-34.180,-63.965,-0.488,0
1664560766.587,17.578,-39.062,-69.336,-13.672,0
1664560766.591,-117.188,-37.109,-66.895,-89.355,0
1664560766.595,-123.535,-37.598,-64.453,-89.355,0
1664560766.599,13.672,-38.574,-68.359,-10.742,0
1664560766.603,39.062,-43.945,-73.730,-5.371,0
1664560766.606,-95.215,-45.410,-71.777,-81.055,0
1664560766.610,-147.949,-34.668,-65.430,-97.656,0
1664560766.614,-32.715,-33.203,-68.848,-30.762,0
1664560766.618,56.152,-41.016,-83.496,-2.930,0
1664560766.622,-40.527,-33.691,-76.172,-59.570,0
1664560766.624,-139.160,-23.438,-64.941,-103.027,0
1664560766.628,-63.965,-26.367,-70.312,-63.965,0
1664560766.632,63.477,-32.227,-72.754,3.418,0
1664560766.636,5.371,-22.461,-63.477,-23.438,0
1664560766.640,-117.188,-16.602,-58.105,-87.402,0
1664560766.644,-92.773,-25.391,-53.223,-69.336,0
1664560766.648,50.781,-29.297,-54.199,12.207,0
1664560766.651,44.434,-22.949,-63.965,-4.395,0
1664560766.655,-95.215,-20.508,-59.570,-79.102,0
1664560766.659,-133.301,-28.809,-66.895,-94.727,0
1664560766.663,-10.254,-29.785,-80.566,-37.598,0
1664560766.667,57.617,-16.602,-66.895,0.977,0
1664560766.669,-67.383,-17.578,-63.477,-70.312,0
1664560766.673,-146.973,-25.879,-71.289,-119.141,0
1664560766.677,-35.645,-26.855,-67.383,-55.664,0
1664560766.681,76.660,-25.391,-60.059,17.578,0
1664560766.685,-21.484,-26.367,-53.711,-31.738,0
1664560766.689,-131.348,-25.391,-52.734,-90.820,0
1664560766.693,-72.754,-27.832,-56.152,-55.176,0
1664560766.696,63.477,-23.438,-54.688,21.973,0
1664560766.700,23.438,-20.508,-52.734,1.465,0
1664560766.704,-125.000,-34.180,-66.406,-90.332,0
1664560766.708,-115.234,-34.180,-67.383,-86.914,0
1664560766.712,36.621,-21.484,-58.594,7.812,0
1664560766.714,47.852,-20.020,-62.012,9.766,0
1664560766.718,-92.285,-27.344,-70.801,-75.684,0
1664560766.722,-127.930,-24.902,-64.453,-87.402,0
1664560766.726,1.465,-20.020,-61.523,-11.230,0
1664560766.730,73.730,-21.484,-69.336,14.160,0
1664560766.734,-48.340,-24.902,-71.777,-57.129,0
1664560766.738,-144.043,-31.738,-73.730,-106.445,0
1664560766.741,-41.992,-31.738,-70.312,-39.062,0
1664560766.745,68.848,-36.133,-77.637,20.996,0
1664560766.749,-26.367,-42.969,-94.238,-56.152,0
1664560766.753,-133.789,-32.227,-81.543,-116.211,0
1664560766.757,-86.426,-32.227,-74.219,-79.590,0
1664560766.758,45.410,-38.086,-85.449,-6.348,0
1664560766.762,10.742,-36.621,-88.379,-31.250,0
1664560766.766,-116.699,-34.668,-81.543,-104.004,0
1664560766.770,-122.559,-36.621,-81.055,-102.539,0
1664560766.774,11.719,-38.574,-82.031,-25.391,0
1664560766.778,33.691,-34.180,-82.031,-10.742,0
1664560766.782,-103.027,-30.273,-80.566,-83.496,0
1664560766.785,-159.668,-36.621,-83.984,-103.516,0
1664560766.789,-53.223,-48.340,-98.145,-44.922,0
1664560766.793,32.227,-49.805,-92.285,-9.766,0
1664560766.797,-71.289,-39.551,-74.219,-66.895,0
1664560766.801,-167.969,-36.133,-69.824,-120.605,0
1664560766.803,-94.727,-44.922,-80.078,-78.125,0
1664560766.807,36.133,-42.969,-75.684,-2.930,0
1664560766.811,-24.902,-37.109,-68.359,-34.180,0
1664560766.815,-156.250,-43.457,-74.707,-112.793,0
1664560766.819,-124.512,-46.875,-79.102,-99.609,0
1664560766.823,17.578,-40.039,-78.125,-18.555,0
1664560766.827,12.207,-31.738,-61.523,-12.695,0
1664560766.830,-126.953,-35.645,-59.570,-93.750,0
1664560766.834,-172.852,-52.246,-85.938,-141.602,0
1664560766.838,-26.855,-40.039,-79.102,-56.641,0
1664560766.842,22.461,-33.691,-72.754,-22.461,0
1664560766.846,-115.723,-44.922,-83.008,-108.398,0
1664560766.848,-185.547,-36.133,-79.102,-149.414,0
1664560766.852,-101.562,-38.574,-75.195,-99.121,0
1664560766.856,-31.250,-49.805,-88.379,-73.242,0
1664560766.860,-139.648,-44.434,-86.914,-147.949,0
1664560766.864,-258.789,-32.227,-82.031,-226.074,0
1664560766.868,-205.566,-30.762,-79.102,-208.496,0
1664560766.872,-101.562,-42.969,-78.125,-155.762,0
1664560766.875,-201.660,-51.758,-95.703,-227.051,0
1664560766.879,-342.773,-50.781,-100.098,-324.219,0
1664560766.883,-330.566,-52.734,-92.773,-313.965,0
1664560766.887,-211.426,-64.941,-90.332,-247.559,0
1664560766.891,-229.492,-70.801,-105.957,-267.578,0
1664560766.893,-371.582,-72.754,-115.723,-359.375,0
1664560766.897,-399.902,-84.473,-118.164,-373.535,0
1664560766.901,-263.184,-93.750,-131.348,-294.922,0
1664560766.905,-210.449,-92.773,-142.578,-271.484,0
1664560766.909,-345.703,-101.562,-151.855,-346.680,0
1664560766.913,-401.367,-100.098,-146.973,-362.305,0
1664560766.917,-291.504,-111.816,-154.785,-298.340,0
1664560766.920,-194.336,-134.766,-174.805,-261.230,0
1664560766.924,-281.250,-138.672,-171.387,-299.805,0
1664560766.928,-381.348,-135.742,-171.875,-351.562,0
1664560766.932,-319.824,-140.137,-180.664,-322.266,0
1664560766.936,-174.316,-144.043,-181.641,-229.980,0
1664560766.953,-187.012,-134.766,-181.641,-230.469,0
1664560766.957,-296.387,-131.348,-182.617,-291.016,0
1664560766.961,-291.504,-136.230,-188.965,-284.180,0
1664560766.965,-147.461,-146.973,-196.777,-205.078,0
1664560766.969,-117.188,-150.391,-193.359,-180.176,0
1664560766.973,-246.094,-152.832,-189.453,-236.328,0
1664560766.977,-281.250,-161.133,-191.895,-252.441,0
1664560766.980,-147.949,-166.992,-197.754,-171.875,0
1664560766.984,-60.547,-158.203,-195.312,-115.234,0
1664560766.988,-164.062,-155.762,-190.430,-169.922,0
1664560766.992,-259.277,-172.363,-201.660,-225.098,0
1664560766.996,-163.086,-176.270,-207.031,-171.387,0
1664560766.998,-28.320,-165.527,-196.777,-87.402,0
1664560767.002,-92.773,-157.227,-186.523,-120.605,0
1664560767.006,-198.242,-157.227,-190.430,-182.617,0
1664560767.010,-149.902,-155.762,-193.359,-148.438,0
1664560767.014,-13.672,-145.996,-182.129,-59.082,0
1664560767.018,-37.109,-141.602,-173.828,-72.266,0
1664560767.022,-161.621,-145.508,-172.852,-148.438,0
1664560767.025,-164.551,-140.625,-172.852,-137.207,0
1664560767.029,-23.438,-135.742,-166.504,-42.480,0
1664560767.033,6.836,-142.578,-168.945,-32.715,0
1664560767.037,-133.789,-150.879,-175.781,-124.512,0
1664560767.041,-178.711,-144.043,-168.457,-145.996,0
1664560767.045,-62.988,-143.066,-171.875,-83.008,0
1664560767.049,19.531,-140.625,-166.504,-35.645,0
1664560767.053,-84.961,-131.348,-156.250,-91.797,0
1664560767.057,-170.898,-123.047,-150.391,-132.812,0
1664560767.061,-83.984,-119.141,-147.461,-83.008,0
1664560767.065,39.551,-114.258,-145.996,-15.625,0
1664560767.069,-21.973,-107.910,-140.137,-54.199,0
1664560767.072,-140.625,-109.375,-131.836,-122.559,0
1664560767.076,-105.469,-107.910,-123.535,-87.402,0
1664560767.080,27.832,-109.375,-132.812,-21.484,0
1664560767.084,28.809,-97.656,-125.488,-25.879,0
1664560767.088,-92.285,-80.566,-108.887,-85.938,0
1664560767.089,-115.234,-81.543,-107.910,-98.145,0
1664560767.093,17.578,-91.797,-111.816,-20.508,0
1664560767.097,65.918,-86.426,-106.934,10.742,0
1664560767.101,-55.664,-80.566,-94.238,-56.641,0
1664560767.105,-125.977,-87.402,-94.238,-99.121,0
1664560767.109,-25.391,-87.891,-101.074,-40.039,0
1664560767.113,69.336,-84.473,-103.027,14.160,0
1664560767.116,-19.531,-76.660,-92.285,-26.367,0
1664560767.120,-125.000,-76.660,-93.750,-84.473,0
1664560767.124,-68.359,-83.496,-109.863,-66.406,0
1664560767.128,69.336,-73.242,-103.516,14.648,0
1664560767.132,16.113,-65.918,-89.355,-13.184,0
1664560767.133,-108.398,-67.383,-86.426,-82.031,0
1664560767.137,-92.285,-71.777,-95.215,-69.336,0
1664560767.141,46.875,-70.312,-96.191,3.906,0
1664560767.145,54.688,-65.918,-87.891,6.348,0
1664560767.149,-78.125,-65.918,-85.449,-69.824,0
1664560767.153,-108.887,-62.988,-81.055,-87.891,0
1664560767.157,15.625,-65.918,-82.520,-14.648,0
1664560767.160,84.473,-58.594,-74.219,35.645,0
1664560767.164,-48.828,-62.500,-80.078,-49.805,0
1664560767.168,-134.766,-66.406,-82.520,-100.098,0
1664560767.172,-27.832,-63.477,-78.125,-25.879,0
1664560767.176,79.102,-67.871,-83.008,34.668,0
1664560767.179,-18.066,-65.918,-83.008,-22.949,0
1664560767.183,-131.348,-58.594,-78.613,-89.844,0
1664560767.187,-66.895,-54.199,-70.312,-42.480,0
1664560767.191,63.477,-58.105,-72.754,34.668,0
1664560767.195,21.484,-56.641,-74.219,2.441,0
1664560767.199,-101.074,-47.363,-62.988,-59.570,0
1664560767.203,-86.426,-48.340,-50.781,-40.527,0
1664560767.206,41.992,-71.289,-57.617,24.414,0
1664560767.210,40.039,-86.426,-70.801,6.348,0
1664560767.214,-81.055,-78.613,-65.430,-61.035,0
1664560767.218,-125.000,-93.262,-71.289,-82.520,0
1664560767.222,-10.742,-108.398,-78.125,-22.461,0
1664560767.224,65.918,-98.633,-72.266,16.113,0
1664560767.228,-44.434,-87.402,-63.477,-39.551,0
1664560767.232,-130.859,-81.055,-67.871,-81.055,0
1664560767.236,-49.316,-83.008,-79.590,-46.387,0
1664560767.240,69.824,-83.496,-75.684,11.719,0
1664560767.244,2.441,-73.242,-66.406,-16.602,0
1664560767.248,-111.816,-66.895,-60.059,-76.172,0
1664560767.251,-75.195,-75.195,-65.430,-65.918,0
1664560767.255,55.176,-75.195,-76.172,-3.418,0
1664560767.259,42.480,-60.059,-60.547,-5.371,0
1664560767.263,-85.938,-61.035,-54.199,-74.219,0
1664560767.267,-105.469,-68.848,-68.359,-84.473,0
1664560767.269,30.762,-63.477,-70.312,-12.695,0
1664560767.273,73.730,-51.270,-55.664,26.367,0
1664560767.277,-52.246,-50.781,-49.805,-34.180,0
1664560767.281,-122.070,-66.406,-73.242,-94.238,0
1664560767.285,-1.465,-64.453,-75.684,-21.484,0
1664560767.289,97.168,-54.688,-60.059,49.316,0
1664560767.293,-20.020,-58.105,-53.711,-13.672,0
1664560767.296,-134.277,-57.129,-57.129,-86.426,0
1664560767.300,-54.199,-58.105,-64.941,-45.898,0
1664560767.304,57.129,-68.359,-80.566,11.230,0
1664560767.308,-20.508,-68.848,-82.520,-36.133,0
1664560767.312,-136.719,-68.848,-81.543,-104.004,0
1664560767.328,-107.422,-67.871,-77.637,-79.102,0
1664560767.332,28.320,-70.312,-78.125,-5.859,0
1664560767.336,17.578,-75.195,-86.426,-23.926,0
1664560767.340,-112.305,-66.406,-80.566,-91.309,0
1664560767.344,-116.211,-52.246,-67.871,-83.984,0
1664560767.348,23.926,-50.293,-66.406,-5.859,0
1664560767.352,54.199,-54.199,-75.684,7.812,0
1664560767.355,-81.543,-55.664,-80.566,-66.895,0
1664560767.359,-141.602,-52.734,-72.754,-93.750,0
1664560767.363,-36.133,-53.711,-68.848,-26.367,0
1664560767.367,41.504,-68.359,-81.055,5.859,0
1664560767.371,-60.059,-68.848,-81.055,-63.965,0
1664560767.375,-151.855,-64.941,-70.312,-112.793,0
1664560767.379,-88.867,-68.359,-74.219,-79.102,0
1664560767.383,31.250,-68.848,-81.055,-15.137,0
1664560767.387,-17.090,-66.895,-74.219,-40.039,0
1664560767.391,-137.207,-62.988,-67.383,-103.516,0
1664560767.395,-120.117,-66.895,-69.336,-83.008,0
1664560767.399,11.230,-75.684,-77.637,-10.254,0
1664560767.402,14.648,-78.125,-81.055,-19.531,0
1664560767.406,-111.816,-67.871,-65.918,-82.031,0
1664560767.410,-154.297,-71.289,-65.430,-104.492,0
1664560767.414,-42.480,-81.543,-83.008,-56.641,0
1664560767.418,25.879,-75.684,-75.684,-11.719,0
1664560767.418,-77.637,-78.613,-60.547,-55.176,0
1664560767.422,-152.344,-79.102,-62.988,-98.145,0
1664560767.426,-70.312,-72.266,-74.219,-64.453,0
1664560767.430,36.621,-71.777,-74.219,-5.859,0
1664560767.434,-41.992,-67.383,-67.871,-44.434,0
1664560767.438,-146.973,-57.617,-67.871,-109.375,0
1664560767.442,-104.980,-65.430,-85.449,-98.145,0
1664560767.445,27.344,-64.941,-84.961,-29.297,0
1664560767.449,5.371,-57.617,-70.801,-28.809,0
1664560767.453,-142.090,-72.754,-87.891,-121.094,0
1664560767.457,-145.996,-75.195,-93.262,-129.883,0
1664560767.461,0.000,-72.754,-84.961,-38.086,0
1664560767.463,13.184,-79.590,-90.820,-32.715,0
1664560767.467,-127.441,-80.566,-97.168,-119.629,0
1664560767.471,-156.738,-72.754,-86.426,-135.254,0
1664560767.475,-20.508,-70.312,-77.148,-50.781,0
1664560767.479,48.340,-69.824,-75.195,-7.324,0
1664560767.483,-65.918,-65.430,-71.777,-69.824,0
1664560767.487,-150.879,-67.383,-75.195,-119.141,0
1664560767.490,-61.035,-63.965,-69.336,-56.641,0
1664560767.494,53.223,-70.801,-74.219,8.789,0
1664560767.498,-36.133,-82.031,-81.055,-60.547,0
1664560767.502,-142.090,-76.172,-74.219,-120.605,0
1664560767.506,-83.984,-76.660,-82.031,-91.797,0
1664560767.508,48.340,-81.055,-87.891,-23.438,0
1664560767.512,19.043,-77.637,-79.102,-40.039,0
1664560767.516,-123.535,-76.172,-71.777,-109.375,0
1664560767.520,-156.738,-83.984,-73.242,-111.328,0
1664560767.524,-30.762,-85.938,-77.148,-38.574,0
1664560767.528,10.742,-78.125,-71.777,-11.230,0
1664560767.532,-106.934,-79.102,-65.430,-82.520,0
1664560767.535,-155.273,-78.613,-67.871,-110.840,0
1664560767.539,-51.758,-85.938,-81.055,-54.688,0
1664560767.543,34.180,-87.402,-81.055,-10.742,0
1664560767.547,-59.082,-72.754,-69.336,-59.570,0
1664560767.551,-159.180,-79.102,-70.312,-112.793,0
1664560767.553,-97.656,-91.797,-80.078,-80.566,0
1664560767.557,37.598,-85.449,-78.125,-11.719,0
1664560767.561,-4.395,-76.660,-68.359,-33.203,0
1664560767.565,-124.023,-74.219,-63.477,-104.980,0
1664560767.569,-104.004,-76.660,-66.895,-94.238,0
1664560767.573,34.668,-77.637,-68.848,-12.207,0
1664560767.577,38.086,-72.266,-62.012,-4.395,0
1664560767.580,-98.633,-69.336,-58.594,-73.242,0
1664560767.584,-143.066,-82.520,-72.266,-106.445,0
1664560767.588,-9.277,-79.102,-75.195,-33.691,0
1664560767.592,45.410,-77.637,-72.754,2.930,0
1664560767.596,-83.008,-83.496,-66.895,-76.172,0
1664560767.598,-153.320,-81.055,-62.500,-122.070,0
1664560767.602,-40.039,-73.730,-60.059,-50.781,0
1664560767.606,62.988,-71.289,-59.570,3.906,0
1664560767.610,-42.480,-76.660,-61.035,-57.617,0
1664560767.614,-142.578,-73.730,-53.711,-105.957,0
1664560767.618,-70.801,-73.242,-50.781,-59.570,0
1664560767.622,62.012,-73.730,-59.570,20.508,0
1664560767.625,-2.930,-81.543,-66.406,-20.508,0
1664560767.629,-133.789,-81.055,-61.035,-100.098,0
1664560767.633,-113.281,-73.730,-53.711,-82.520,0
1664560767.637,22.949,-77.148,-57.129,-9.766,0
1664560767.641,31.738,-75.684,-57.129,-2.930,0
1664560767.643,-97.168,-66.895,-56.152,-73.730,0
1664560767.647,-136.719,-65.430,-56.641,-95.215,0
1664560767.651,-12.695,-70.312,-57.617,-29.297,0
1664560767.655,50.781,-71.289,-68.359,-1.953,0
1664560767.659,-72.754,-66.406,-61.523,-68.359,0
1664560767.663,-141.113,-56.152,-42.480,-85.938,0
1664560767.667,-44.434,-60.547,-49.805,-32.715,0
1664560767.670,59.082,-70.312,-59.570,6.348,0
1664560767.674,-24.414,-66.406,-46.875,-29.785,0
1664560767.678,-140.137,-65.430,-46.387,-89.355,0
1664560767.682,-94.238,-71.289,-58.105,-74.219,0
1664560767.686,47.363,-72.266,-61.523,-4.395,0
1664560767.704,14.648,-69.336,-60.059,-21.484,0
1664560767.708,-124.023,-77.637,-65.430,-105.469,0
1664560767.712,-129.395,-81.055,-67.383,-117.676,0
1664560767.716,4.883,-80.078,-65.430,-37.598,0
1664560767.720,32.227,-78.613,-56.152,-8.789,0
1664560767.724,-102.539,-82.520,-51.270,-73.242,0
1664560767.728,-167.969,-89.844,-63.477,-116.699,0
1664560767.731,-57.129,-90.332,-72.754,-69.824,0
1664560767.735,41.992,-79.102,-62.988,-14.648,0
1664560767.739,-67.383,-76.172,-53.711,-62.988,0
1664560767.743,-177.246,-88.379,-66.406,-125.488,0
1664560767.747,-85.938,-87.402,-71.289,-80.078,0
1664560767.748,57.129,-80.078,-62.012,0.488,0
1664560767.752,-7.812,-77.637,-53.223,-26.855,0
1664560767.756,-140.137,-86.914,-59.082,-95.215,0
1664560767.760,-106.445,-98.633,-68.848,-84.473,0
1664560767.764,46.875,-102.539,-62.988,-7.812,0
1664560767.768,27.344,-107.910,-57.129,-9.766,0
1664560767.772,-127.441,-122.559,-64.453,-85.449,0
1664560767.775,-150.391,-125.977,-65.918,-95.215,0
1664560767.779,2.930,-115.723,-49.805,-5.371,0
1664560767.783,41.016,-119.141,-54.688,15.137,0
1664560767.787,-101.074,-123.535,-67.871,-81.543,0
1664560767.791,-157.227,-113.281,-59.570,-109.375,0
1664560767.794,-42.480,-113.770,-64.453,-49.805,0
1664560767.798,56.152,-109.375,-64.453,1.953,0
1664560767.802,-51.758,-100.586,-58.105,-47.852,0
1664560767.806,-155.762,-97.168,-55.664,-101.562,0
1664560767.810,-81.543,-97.168,-58.105,-62.500,0
1664560767.814,41.016,-100.586,-66.895,-1.465,0
1664560767.818,-33.691,-105.469,-71.289,-42.969,0
1664560767.821,-151.855,-97.168,-61.035,-104.492,0
1664560767.825,-108.887,-82.031,-47.852,-73.730,0
1664560767.829,18.555,-92.773,-65.430,-18.555,0
1664560767.833,14.160,-91.797,-69.824,-29.785,0
1664560767.837,-108.398,-81.055,-54.688,-86.426,0
1664560767.838,-140.625,-85.449,-52.734,-99.609,0
1664560767.842,-9.766,-91.309,-59.570,-37.109,0
1664560767.846,51.758,-87.891,-56.641,-3.418,0
1664560767.850,-80.566,-87.402,-52.734,-67.383,0
1664560767.854,-152.832,-83.984,-54.688,-99.609,0
1664560767.858,-39.062,-83.008,-61.523,-44.922,0
1664560767.862,64.453,-90.820,-73.730,-5.371,0
1664560767.865,-28.809,-86.426,-67.383,-42.969,0
1664560767.869,-144.043,-88.867,-67.383,-96.680,0
1664560767.873,-92.285,-101.074,-76.172,-84.473,0
1664560767.877,50.781,-92.773,-66.406,-9.277,0
1664560767.881,5.371,-89.355,-62.500,-22.949,0
1664560767.884,-132.812,-92.773,-64.453,-90.820,0
1664560767.888,-127.930,-94.727,-66.406,-92.773,0
1664560767.892,14.160,-94.727,-67.383,-17.578,0
1664560767.896,30.273,-87.402,-62.988,-3.906,0
1664560767.900,-112.793,-88.867,-67.383,-83.496,0
1664560767.904,-155.273,-89.844,-70.801,-106.934,0
1664560767.908,-18.066,-89.844,-68.359,-34.668,0
1664560767.911,54.688,-93.750,-67.383,8.789,0
1664560767.915,-81.543,-99.609,-73.242,-63.965,0
1664560767.919,-167.480,-99.609,-72.754,-118.652,0
1664560767.923,-58.105,-91.309,-63.965,-56.641,0
1664560767.927,57.617,-86.426,-61.035,5.859,0
1664560767.929,-34.180,-86.914,-60.547,-47.852,0
1664560767.933,-143.555,-83.008,-56.641,-104.980,0
1664560767.937,-90.332,-82.031,-55.664,-77.637,0
1664560767.941,44.434,-81.055,-58.105,-10.742,0
1664560767.945,6.348,-77.148,-62.988,-24.414,0
1664560767.949,-129.883,-77.637,-62.500,-91.309,0
1664560767.953,-123.047,-78.125,-58.594,-87.402,0
1664560767.956,16.602,-85.938,-68.359,-21.484,0
1664560767.960,27.344,-95.703,-83.008,-20.996,0
1664560767.964,-102.539,-87.402,-76.660,-83.496,0
1664560767.968,-145.996,-85.449,-73.242,-108.398,0
1664560767.972,-10.254,-90.820,-72.754,-40.039,0
1664560767.974,72.266,-92.285,-71.289,4.395,0
1664560767.978,-68.359,-90.820,-64.941,-68.359,0
1664560767.982,-173.828,-90.820,-63.477,-120.605,0
1664560767.986,-82.520,-95.703,-68.848,-71.289,0
1664560767.990,48.340,-93.750,-67.871,-6.836,0
1664560767.994,-17.578,-84.961,-60.547,-32.715,0
1664560767.998,-143.555,-85.449,-62.012,-86.426,0
1664560768.001,-118.652,-96.191,-74.707,-86.426,0
1664560768.005,26.367,-92.773,-77.148,-20.508,0
1664560768.009,27.344,-79.590,-67.383,-5.371,0
1664560768.013,-107.422,-79.102,-58.594,-70.801,0
1664560768.017,-130.371,-80.566,-64.453,-88.867,0
1664560768.018,13.672,-76.172,-66.895,-17.090,0
1664560768.022,70.801,-66.406,-55.664,16.113,0
1664560768.026,-75.195,-72.266,-60.059,-59.082,0
1664560768.030,-154.297,-80.078,-60.059,-101.074,0
1664560768.034,-27.344,-73.242,-48.828,-35.156,0
1664560768.038,79.102,-65.430,-44.922,31.738,0
1664560768.042,-39.551,-68.848,-38.574,-16.602,0
1664560768.045,-163.574,-82.520,-48.828,-97.656,0
1664560768.049,-85.449,-85.449,-59.082,-70.312,0
1664560768.053,59.082,-77.637,-57.129,5.371,0
1664560768.057,1.465,-73.242,-60.059,-20.020,0
1664560768.061,-128.906,-72.754,-58.594,-91.309,0
1664560768.078,-98.145,-68.848,-50.781,-74.707,0
1664560768.082,50.781,-67.383,-47.852,8.789,0
1664560768.086,43.457,-65.918,-49.805,10.742,0
1664560768.090,-90.820,-67.871,-45.410,-64.941,0
1664560768.094,-116.211,-66.895,-42.969,-74.707,0
1664560768.098,20.996,-63.965,-42.969,-1.953,0
1664560768.102,77.148,-66.406,-44.434,25.391,0
1664560768.105,-55.664,-65.918,-48.340,-43.945,0
1664560768.109,-120.605,-59.570,-43.945,-80.566,0
1664560768.113,-15.625,-58.594,-42.969,-20.508,0
1664560768.117,82.520,-64.941,-51.270,30.273,0
1664560768.121,-7.812,-56.641,-43.945,-17.090,0
1664560768.124,-114.258,-47.363,-27.344,-62.500,0
1664560768.128,-58.594,-52.734,-37.598,-41.016,0
1664560768.132,66.895,-61.035,-51.270,12.695,0
1664560768.136,32.715,-52.246,-44.434,10.254,0
1664560768.140,-92.773,-47.363,-36.133,-48.340,0
1664560768.144,-79.590,-54.688,-37.598,-47.852,0
1664560768.148,67.383,-51.758,-41.016,23.926,0
1664560768.151,73.242,-44.434,-28.320,26.367,0
1664560768.155,-61.523,-35.645,-17.090,-26.367,0
1664560768.159,-119.629,-45.410,-30.273,-51.270,0
1664560768.163,-9.766,-59.570,-41.992,-14.648,0
1664560768.167,76.660,-52.734,-24.902,31.250,0
1664560768.168,-45.898,-48.828,-21.484,-30.273,0
1664560768.172,-137.695,-48.828,-31.250,-85.449,0
1664560768.176,-37.109,-47.852,-32.715,-31.250,0
1664560768.180,80.566,-56.152,-37.109,42.480,0
1664560768.184,3.418,-57.129,-31.738,12.695,0
1664560768.188,-114.746,-53.711,-35.156,-59.082,0
1664560768.192,-85.938,-56.641,-50.293,-63.477,0
1664560768.195,52.246,-50.781,-46.387,6.836,0
1664560768.199,44.434,-41.016,-30.762,15.137,0
1664560768.203,-104.492,-49.805,-42.969,-79.590,0
1664560768.207,-122.559,-57.617,-53.223,-93.262,0
1664560768.211,30.762,-50.781,-42.480,0.488,0
1664560768.213,62.500,-46.875,-37.598,21.484,0
1664560768.217,-81.055,-50.781,-44.922,-53.711,0
1664560768.221,-134.277,-51.758,-51.270,-84.961,0
1664560768.225,-11.230,-54.688,-50.293,-18.555,0
1664560768.229,77.637,-56.152,-45.410,31.250,0
1664560768.233,-28.809,-49.316,-38.574,-20.996,0
1664560768.237,-132.812,-50.781,-39.551,-86.426,0
1664560768.240,-49.316,-45.410,-35.156,-35.645,0
1664560768.244,76.172,-49.316,-40.039,36.133,0
1664560768.248,-11.719,-59.082,-51.758,-24.414,0
1664560768.252,-128.906,-48.340,-40.039,-82.520,0
1664560768.256,-93.262,-51.758,-46.875,-72.266,0
1664560768.259,41.992,-55.176,-56.152,-4.395,0
1664560768.263,27.832,-53.223,-54.688,-1.465,0
1664560768.267,-102.051,-50.781,-48.828,-69.336,0
1664560768.271,-117.188,-46.387,-46.875,-79.102,0
1664560768.275,18.066,-50.293,-45.898,-11.230,0
1664560768.279,70.312,-52.246,-41.992,19.531,0
1664560768.283,-65.918,-50.781,-40.527,-49.805,0
1664560768.286,-141.602,-51.758,-41.016,-86.914,0
1664560768.290,-37.598,-64.941,-63.965,-45.898,0
1664560768.294,71.289,-64.941,-62.988,2.441,0
1664560768.298,-23.926,-52.734,-44.434,-27.832,0
1664560768.302,-127.930,-46.387,-43.457,-82.031,0
1664560768.303,-54.688,-44.434,-44.922,-56.641,0
1664560768.307,83.008,-44.434,-35.645,25.391,0
1664560768.311,28.320,-44.922,-33.691,8.789,0
1664560768.315,-110.352,-50.781,-42.480,-71.289,0
1664560768.319,-95.215,-53.223,-44.434,-69.824,0
1664560768.323,42.480,-56.152,-47.852,3.906,0
1664560768.327,55.176,-50.781,-40.527,26.855,0
1664560768.330,-83.984,-45.898,-31.738,-37.109,0
1664560768.334,-134.277,-54.688,-41.016,-85.938,0
1664560768.338,10.742,-46.875,-36.133,-13.184,0
1664560768.342,82.031,-40.527,-33.203,28.809,0
1664560768.346,-51.758,-43.457,-36.621,-42.480,0
1664560768.350,-133.301,-44.922,-38.574,-83.984,0
1664560768.354,-20.996,-43.457,-41.992,-24.414,0
1664560768.358,97.168,-47.852,-39.062,38.574,0
1664560768.362,3.418,-43.457,-36.133,-4.883,0
1664560768.366,-113.281,-34.180,-27.344,-58.105,0
1664560768.370,-52.246,-32.715,-18.555,-24.414,0
1664560768.374,93.750,-29.785,-20.996,46.875,0
1664560768.377,45.898,-34.180,-34.668,16.602,0
1664560768.381,-94.727,-30.273,-41.992,-56.152,0
1664560768.385,-81.055,-27.344,-36.621,-47.852,0
1664560768.389,62.988,-27.344,-35.156,21.484,0
1664560768.393,84.473,-26.367,-33.203,36.621,0
1664560768.394,-45.410,-27.832,-21.973,-31.250,0
1664560768.398,-101.074,-28.320,-21.973,-69.824,0
1664560768.402,11.230,-35.156,-34.668,-12.207,0
1664560768.406,84.961,-38.086,-34.668,25.391,0
1664560768.410,-27.344,-29.297,-25.391,-23.926,0
1664560768.414,-110.352,-23.438,-19.531,-55.664,0
1664560768.418,-23.438,-28.320,-26.367,-14.648,0
1664560768.421,89.844,-35.645,-31.738,42.480,0
1664560768.425,15.137,-31.250,-31.738,6.348,0
1664560768.429,-101.074,-24.414,-27.832,-53.711,0
1664560768.433,-61.035,-29.297,-29.297,-37.109,0
1664560768.437,73.730,-30.273,-33.203,27.344,0
1664560768.454,50.293,-26.855,-19.531,20.020,0
1664560768.458,-82.520,-27.344,-12.695,-45.898,0
1664560768.462,-91.309,-31.738,-16.113,-53.711,0
1664560768.466,43.945,-37.109,-18.555,17.578,0
1664560768.470,86.426,-29.785,-18.066,45.410,0
1664560768.474,-41.504,-28.320,-17.578,-20.508,0
1664560768.478,-112.793,-39.062,-27.832,-64.453,0
1664560768.481,-1.465,-42.969,-37.109,-11.719,0
1664560768.485,101.562,-38.574,-25.391,50.781,0
1664560768.489,-8.301,-35.645,-19.531,0.000,0
1664560768.493,-118.652,-41.016,-33.691,-65.918,0
1664560768.497,-36.621,-38.574,-37.109,-20.020,0
1664560768.499,90.820,-36.133,-32.715,52.246,0
1664560768.503,20.020,-39.551,-36.133,17.090,0
1664560768.507,-109.863,-39.062,-41.992,-56.152,0
1664560768.511,-73.730,-33.203,-42.969,-40.039,0
1664560768.515,58.594,-27.344,-40.039,30.273,0
1664560768.519,37.598,-28.320,-33.691,17.578,0
1664560768.523,-82.031,-27.832,-28.809,-45.898,0
1664560768.526,-102.539,-28.320,-31.738,-63.965,0
1664560768.530,37.598,-27.344,-26.367,15.625,0
1664560768.534,95.703,-25.391,-26.367,50.293,0
1664560768.538,-35.156,-26.855,-37.598,-32.715,0
1664560768.542,-99.609,-21.484,-35.156,-65.430,0
1664560768.543,8.301,-28.809,-41.016,-9.766,0
1664560768.547,107.422,-35.156,-43.457,37.109,0
1664560768.551,3.906,-30.762,-38.574,-10.742,0
1664560768.555,-106.445,-26.855,-39.062,-64.453,0
1664560768.559,-42.480,-33.203,-38.086,-32.715,0
1664560768.563,97.168,-37.109,-31.738,43.945,0
1664560768.567,40.039,-34.668,-32.715,22.949,0
1664560768.570,-93.262,-29.785,-28.809,-45.898,0
1664560768.574,-64.941,-23.926,-15.137,-27.832,0
1664560768.578,72.266,-26.855,-21.484,35.156,0
1664560768.582,77.637,-20.508,-26.367,37.109,0
1664560768.586,-50.293,-14.160,-19.043,-20.508,0
1664560768.589,-84.961,-19.531,-20.508,-42.969,0
1664560768.593,37.109,-23.926,-25.879,20.020,0
1664560768.597,108.887,-19.531,-22.461,62.500,0
1664560768.601,-18.066,-11.230,-14.648,1.465,0
1664560768.605,-87.402,-13.184,-12.695,-37.598,0
1664560768.609,23.438,-14.648,-13.672,13.184,0
1664560768.613,114.746,-14.648,-16.113,54.688,0
1664560768.616,35.156,-6.836,-7.324,28.320,0
1664560768.620,-83.496,-6.836,-11.230,-31.250,0
1664560768.624,-35.156,-15.625,-25.879,-21.484,0
1664560768.628,107.910,-7.324,-20.996,59.082,0
1664560768.632,64.941,-2.441,-13.672,46.387,0
1664560768.633,-73.242,-5.859,-12.695,-29.297,0
1664560768.637,-73.242,-6.348,-19.531,-37.598,0
1664560768.641,79.590,0.977,-9.277,45.410,0
1664560768.645,107.422,2.441,-2.930,68.848,0
1664560768.649,-43.945,-4.883,-14.648,-14.160,0
1664560768.653,-94.238,-1.953,-13.184,-45.410,0
1664560768.657,35.156,-0.488,-7.812,28.320,0
1664560768.660,124.512,-0.488,-7.324,80.566,0
1664560768.664,-2.441,-7.324,-10.742,4.395,0
1664560768.668,-104.492,-8.789,-15.137,-53.223,0
1664560768.672,-8.789,-1.953,-14.160,-2.930,0
1664560768.676,114.258,-8.789,-16.602,59.082,0
1664560768.679,32.715,-13.672,-20.508,23.438,0
1664560768.683,-84.961,-1.465,-13.672,-35.156,0
1664560768.687,-34.668,2.930,-10.254,-11.719,0
1664560768.691,102.539,-7.812,-18.555,53.711,0
1664560768.695,73.730,-10.742,-18.555,45.410,0
1664560768.699,-59.570,-3.906,-3.418,-22.949,0
1664560768.703,-62.012,2.930,8.301,-20.020,0
1664560768.706,71.289,-3.906,3.906,51.758,0
1664560768.710,96.680,-12.695,-6.348,54.199,0
1664560768.714,-22.949,-3.418,1.953,-9.766,0
1664560768.718,-75.195,-1.953,2.930,-43.457,0
1664560768.722,38.574,-12.207,-0.488,15.137,0
1664560768.723,132.812,-15.137,1.465,72.266,0
1664560768.727,25.879,-11.719,6.836,19.043,0
1664560768.731,-76.172,-6.348,9.766,-36.133,0
1664560768.735,-5.859,-4.883,1.953,-2.930,0
1664560768.739,126.465,-7.812,-3.906,66.406,0
1664560768.743,70.801,-4.395,-1.465,44.434,0
1664560768.747,-59.082,-0.488,0.000,-18.066,0
1664560768.750,-43.457,-10.254,-5.859,-23.438,0
1664560768.754,96.191,-12.695,-11.719,42.480,0
1664560768.758,103.516,-5.859,-6.836,50.293,0
1664560768.762,-34.180,-7.812,-4.395,-21.973,0
1664560768.766,-71.289,-17.090,-15.625,-43.945,0
1664560768.769,57.129,-20.996,-18.066,29.297,0
1664560768.773,115.723,-15.137,-9.766,65.430,0
1664560768.777,-11.719,-13.184,-11.719,-6.836,0
1664560768.781,-94.238,-13.184,-16.113,-50.781,0
1664560768.785,17.090,-9.277,-4.883,13.672,0
1664560768.789,131.836,-3.418,7.324,87.891,0
1664560768.793,25.879,-4.883,0.000,36.133,0
1664560768.796,-95.703,-11.230,-6.348,-37.109,0
1664560768.800,-27.832,-9.277,-2.930,0.488,0
1664560768.804,118.652,-1.465,-1.465,81.055,0
1664560768.808,67.871,-3.906,-1.465,57.617,0
1664560768.812,-75.684,-11.230,-2.930,-22.949,0
1664560768.829,-56.641,-4.395,2.930,-13.184,0
1664560768.833,86.426,-5.859,3.418,63.965,0
1664560768.837,92.285,-16.113,-4.883,61.035,0
1664560768.841,-42.480,-15.137,-0.488,-15.137,0
1664560768.845,-78.125,-9.766,4.395,-36.621,0
1664560768.849,56.641,-10.742,-2.930,33.203,0
1664560768.853,119.629,-10.254,-8.301,69.824,0
1664560768.856,-8.789,-9.277,-3.906,0.488,0
1664560768.860,-86.426,-4.883,3.906,-49.316,0
1664560768.864,6.348,-11.230,-0.977,0.000,0
1664560768.868,109.863,-25.391,-11.719,50.293,0
1664560768.872,29.297,-16.113,-8.789,11.230,0
1664560768.874,-68.848,-8.301,-6.836,-28.320,0
1664560768.878,-18.555,-19.043,-8.789,-6.348,0
1664560768.882,93.750,-28.320,-7.324,39.551,0
1664560768.886,54.688,-24.414,0.488,21.484,0
1664560768.890,-63.477,-17.090,6.348,-31.250,0
1664560768.894,-64.453,-21.973,1.953,-29.297,0
1664560768.898,65.918,-27.344,-2.930,38.086,0
1664560768.901,94.238,-24.902,0.977,55.176,0
1664560768.905,-33.691,-17.578,8.789,-3.906,0
1664560768.909,-88.867,-20.020,0.977,-33.691,0
1664560768.913,22.461,-27.832,-15.625,13.184,0
1664560768.917,117.676,-18.555,-6.836,71.777,0
1664560768.918,-1.953,-16.113,-4.395,12.207,0
1664560768.922,-88.379,-17.090,-13.672,-39.551,0
1664560768.926,10.254,-13.672,-9.766,13.184,0
1664560768.930,127.441,-15.625,-2.930,84.961,0
1664560768.934,54.199,-15.625,-4.883,47.852,0
1664560768.938,-72.754,-13.672,-6.836,-26.367,0
1664560768.942,-41.016,-16.602,-5.371,-14.160,0
1664560768.945,100.586,-12.695,0.977,56.641,0
1664560768.949,90.332,-5.371,7.812,63.477,0
1664560768.953,-64.941,-12.207,-6.348,-26.855,0
1664560768.957,-88.867,-16.113,-13.184,-52.246,0
1664560768.961,63.965,-9.766,-3.418,35.645,0
1664560768.963,106.934,-6.836,2.930,62.012,0
1664560768.967,-30.273,-7.324,3.906,-6.348,0
1664560768.971,-84.961,-3.418,4.883,-35.156,0
1664560768.975,35.156,-0.488,1.465,24.414,0
1664560768.979,127.930,-1.953,-3.418,71.289,0
1664560768.983,15.625,-3.906,-7.324,17.090,0
1664560768.987,-90.332,-0.488,-5.371,-37.109,0
1664560768.990,-9.277,4.883,2.930,11.230,0
1664560768.994,115.723,0.488,-4.883,74.219,0
1664560768.998,43.945,2.441,-12.207,24.414,0
1664560769.002,-74.219,12.695,0.488,-30.273,0
1664560769.006,-48.340,8.789,3.906,-10.742,0
1664560769.008,84.473,1.953,0.977,60.059,0
1664560769.012,87.891,5.371,2.930,58.594,0
1664560769.016,-37.109,16.602,9.766,-2.930,0
1664560769.020,-62.500,15.137,10.742,-18.066,0
1664560769.024,67.383,2.441,2.441,37.109,0
1664560769.028,125.000,1.953,0.000,72.266,0
1664560769.032,5.371,8.301,8.301,20.996,0
1664560769.035,-68.359,13.184,14.160,-11.719,0
1664560769.039,21.973,3.906,2.441,31.250,0
1664560769.043,129.395,-2.441,-2.441,76.172,0
1664560769.047,46.875,8.789,9.766,37.109,0
1664560769.051,-64.453,9.277,12.207,-20.996,0
1664560769.054,-13.672,2.441,-0.977,0.000,0
1664560769.058,115.234,3.418,-5.371,69.336,0
1664560769.062,83.496,9.766,2.441,55.176,0
1664560769.066,-53.223,9.277,-0.488,-20.508,0
1664560769.070,-51.758,6.348,-6.836,-22.461,0
1664560769.074,96.191,5.859,-0.977,55.664,0
1664560769.078,122.070,9.766,10.742,80.078,0
1664560769.081,-22.461,5.371,10.254,5.859,0
1664560769.085,-82.031,-8.301,-6.348,-39.551,0
1664560769.089,52.246,-6.348,-4.395,33.691,0
1664560769.093,124.512,-6.348,-4.395,69.336,0
1664560769.097,4.395,-3.906,-4.395,10.254,0
1664560769.099,-86.914,2.930,-4.883,-35.156,0
1664560769.103,12.207,5.371,-1.465,13.672,0
1664560769.107,131.836,0.000,0.000,78.613,0
1664560769.111,44.434,0.977,-7.324,28.320,0
1664560769.115,-66.406,3.418,-0.488,-30.762,0
1664560769.119,-15.137,0.977,3.906,-1.953,0
1664560769.123,120.605,-6.836,2.441,71.289,0
1664560769.126,76.660,-19.043,-15.625,51.758,0
1664560769.130,-61.035,-14.648,-21.973,-28.809,0
1664560769.134,-60.547,-14.160,-6.836,-25.879,0
1664560769.138,73.242,-20.020,-10.254,44.922,0
1664560769.142,103.516,-15.137,-17.090,55.664,0
1664560769.144,-25.391,-12.207,-6.348,-5.859,0
1664560769.148,-84.961,-15.137,-11.230,-35.645,0
1664560769.152,30.762,-20.508,-18.555,22.949,0
1664560769.156,114.258,-26.855,-16.113,63.477,0
1664560769.160,4.883,-20.020,-19.531,3.906,0
1664560769.164,-78.613,-10.254,-12.207,-27.344,0
1664560769.168,-0.488,-17.090,-10.254,18.555,0
1664560769.171,115.234,-21.973,-20.508,62.500,0
1664560769.175,48.828,-14.648,-16.602,30.273,0
1664560769.179,-64.453,-8.789,-9.277,-26.855,0
1664560769.183,-41.504,-12.695,-17.578,-16.602,0
1664560769.187,92.773,-15.625,-21.484,52.246,0
1664560769.204,89.844,-12.695,-16.113,56.641,0
1664560769.208,-53.711,-12.695,-13.184,-19.531,0
1664560769.212,-82.031,-20.508,-18.555,-40.039,0
1664560769.216,50.293,-27.344,-34.180,23.438,0
1664560769.220,97.656,-23.438,-27.832,49.805,0
1664560769.224,-26.855,-15.625,-13.184,-6.348,0
1664560769.228,-103.027,-26.855,-21.973,-52.734,0
1664560769.231,6.348,-34.180,-34.180,-0.488,0
1664560769.235,119.629,-21.484,-23.926,66.895,0
1664560769.239,18.555,-19.531,-12.207,21.973,0
1664560769.243,-102.539,-29.785,-21.973,-51.758,0
1664560769.247,-33.691,-20.020,-22.949,-15.137,0
1664560769.249,104.004,-15.625,-22.461,61.035,0
1664560769.253,48.828,-28.809,-25.391,26.367,0
1664560769.257,-74.219,-26.855,-21.973,-49.316,0
1664560769.261,-51.758,-17.578,-23.926,-39.062,0
1664560769.265,96.191,-12.207,-25.879,46.875,0
1664560769.269,99.121,-4.395,-22.949,51.758,0
1664560769.273,-50.293,-4.883,-21.973,-27.832,0
1664560769.276,-86.914,-10.742,-25.879,-53.711,0
1664560769.280,51.270,-11.719,-19.043,28.809,0
1664560769.284,108.887,-14.160,-15.137,66.895,0
1664560769.288,-37.109,-24.902,-25.391,-22.461,0
1664560769.292,-108.887,-21.484,-23.926,-60.547,0
1664560769.294,-4.883,-18.066,-18.555,-4.883,0
1664560769.298,99.609,-17.578,-19.043,48.340,0
1664560769.302,15.137,-11.719,-18.066,3.906,0
1664560769.306,-94.238,-11.719,-19.043,-52.246,0
1664560769.310,-35.645,-7.812,-17.578,-16.602,0
1664560769.314,106.934,-10.742,-25.391,53.223,0
1664560769.318,63.477,-20.020,-31.250,25.879,0
1664560769.321,-70.801,-10.742,-18.066,-34.668,0
1664560769.325,-62.500,-5.859,-13.184,-19.531,0
1664560769.329,66.406,-21.484,-25.391,38.574,0
1664560769.333,88.867,-20.508,-20.508,50.781,0
1664560769.337,-39.062,-9.277,-9.766,-4.395,0
1664560769.339,-98.633,-18.066,-12.207,-38.086,0
1664560769.343,31.738,-24.902,-16.602,25.879,0
1664560769.347,126.953,-14.160,-13.672,71.777,0
1664560769.351,-0.488,-6.348,-16.113,-0.488,0
1664560769.355,-106.445,-5.859,-17.578,-54.688,0
1664560769.359,-21.973,-13.672,-20.020,-6.836,0
1664560769.363,93.750,-20.020,-25.391,51.270,0
1664560769.366,28.320,-5.371,-13.184,29.297,0
1664560769.370,-91.797,-6.836,-17.578,-31.250,0
1664560769.374,-65.430,-22.461,-29.297,-37.598,0
1664560769.378,81.543,-17.090,-25.391,35.645,0
1664560769.382,67.871,-11.719,-22.461,31.738,0
1664560769.383,-69.336,-18.066,-23.926,-48.828,0
1664560769.387,-83.008,-26.367,-28.809,-63.477,0
1664560769.391,53.711,-24.414,-25.879,13.672,0
1664560769.395,87.891,-33.691,-28.320,31.738,0
1664560769.399,-42.480,-40.527,-34.180,-48.828,0
1664560769.403,-103.516,-41.504,-39.551,-88.379,0
1664560769.407,12.695,-48.828,-43.457,-20.020,0
1664560769.410,104.980,-42.969,-40.527,41.992,0
1664560769.414,-18.555,-39.551,-41.992,-23.926,0
1664560769.418,-116.699,-38.086,-41.992,-81.055,0
1664560769.422,-33.691,-40.527,-35.645,-31.250,0
1664560769.426,93.262,-41.016,-30.273,39.062,0
1664560769.430,30.762,-41.504,-31.738,0.488,0
1664560769.434,-100.586,-42.969,-33.203,-69.824,0
1664560769.438,-69.336,-33.203,-24.902,-45.898,0
1664560769.442,67.871,-31.738,-27.832,30.273,0
1664560769.446,50.781,-36.133,-30.762,19.043,0
1664560769.450,-79.590,-29.785,-21.973,-48.828,0
1664560769.454,-103.516,-20.996,-13.672,-47.363,0
1664560769.457,18.555,-28.320,-23.438,19.531,0
1664560769.461,59.082,-39.062,-36.133,25.879,0
1664560769.465,-58.594,-29.297,-29.297,-33.691,0
1664560769.469,-122.070,-28.320,-32.227,-69.336,0
1664560769.473,-10.254,-28.320,-39.062,-14.648,0
1664560769.474,92.285,-31.738,-43.945,38.086,0
1664560769.478,-4.395,-26.367,-33.691,-6.836,0
1664560769.482,-102.051,-17.578,-29.297,-58.594,0
1664560769.486,-36.133,-24.414,-42.480,-30.273,0
1664560769.490,99.121,-27.832,-40.527,41.992,0
1664560769.494,57.617,-20.996,-30.273,27.344,0
1664560769.498,-66.406,-16.113,-29.785,-34.180,0
1664560769.501,-67.871,-31.738,-39.551,-44.922,0
1664560769.505,55.664,-36.133,-43.945,16.113,0
1664560769.509,78.125,-19.043,-29.785,37.598,0
1664560769.513,-48.340,-18.066,-28.809,-31.250,0
1664560769.517,-100.098,-24.414,-41.016,-62.500,0
1664560769.519,24.902,-23.438,-40.527,5.859,0
1664560769.523,90.820,-22.461,-34.668,44.434,0
1664560769.527,-41.992,-20.996,-32.227,-21.973,0
1664560769.531,-126.465,-22.949,-33.203,-70.801,0
1664560769.535,-21.973,-20.508,-32.715,-10.254,0
1664560769.539,98.633,-13.184,-27.344,68.848,0
1664560769.543,5.371,-14.160,-27.832,18.555,0
1664560769.546,-120.605,-19.043,-33.691,-57.129,0
1664560769.550,-62.500,-13.184,-33.203,-33.691,0
1664560769.554,86.914,-5.371,-28.809,56.152,0
1664560769.558,54.199,-10.254,-33.203,43.457,0
1664560769.562,-83.008,-11.230,-36.621,-46.875,0
1664560769.579,-82.520,-12.695,-32.715,-46.875,0
1664560769.583,58.594,-20.020,-36.133,28.809,0
1664560769.587,82.031,-20.020,-43.945,37.598,0
1664560769.591,-60.059,-14.648,-43.457,-38.574,0
1664560769.595,-88.379,-12.207,-35.645,-55.176,0
1664560769.599,-57.129,-18.066,-41.504,-41.504,0
1664560769.603,-107.910,-13.184,-39.551,-68.359,0
1664560769.606,-32.715,-13.672,-41.016,-24.902,0
1664560769.610,86.426,-29.297,-52.734,30.762,0
1664560769.614,8.301,-25.391,-51.758,-15.137,0
1664560769.618,-100.586,-13.672,-41.504,-62.500,0
1664560769.622,-55.176,-16.602,-37.109,-31.738,0
1664560769.624,74.219,-25.391,-49.316,37.598,0
1664560769.628,60.059,-15.137,-43.457,33.691,0
1664560769.632,-67.871,-8.789,-38.086,-33.203,0
1664560769.636,-83.984,-8.301,-41.992,-45.410,0
1664560769.640,43.945,-17.578,-46.875,15.137,0
1664560769.644,86.426,-20.508,-48.340,42.480,0
1664560769.648,-31.738,-6.836,-43.945,-8.789,0
1664560769.651,-100.586,-9.766,-50.781,-43.945,0
1664560769.655,0.977,-21.484,-56.152,-3.418,0
1664560769.659,109.375,-16.113,-46.875,58.594,0
1664560769.663,7.324,-7.812,-41.992,12.695,0
1664560769.667,-98.633,-8.301,-42.969,-55.176,0
1664560769.669,-26.855,-14.160,-48.828,-30.762,0
1664560769.673,98.633,-14.160,-46.387,33.203,0
1664560769.677,39.551,-5.859,-41.992,2.930,0
1664560769.681,-87.891,-5.371,-45.898,-64.453,0
1664560769.685,-55.176,-3.418,-40.527,-41.992,0
1664560769.689,91.309,0.000,-33.203,42.480,0
1664560769.693,83.496,0.977,-31.250,42.480,0
1664560769.696,-72.266,-8.301,-45.410,-53.223,0
1664560769.700,-102.539,-12.207,-49.316,-77.148,0
1664560769.704,43.945,-6.348,-37.598,9.766,0
1664560769.708,93.750,-4.395,-40.039,38.574,0
1664560769.712,-42.480,-12.695,-49.805,-43.945,0
1664560769.729,-115.234,-14.648,-46.387,-87.402,0
1664560769.733,-6.836,-11.230,-43.457,-20.508,0
1664560769.737,98.145,-11.719,-46.875,43.457,0
1664560769.741,2.441,-14.160,-43.945,-12.695,0
1664560769.745,-111.328,-20.996,-41.504,-78.613,0
1664560769.749,-36.621,-18.555,-33.203,-25.879,0
1664560769.753,98.633,-26.367,-36.133,45.898,0
1664560769.756,36.133,-32.715,-48.340,0.000,0
1664560769.760,-85.938,-26.367,-42.480,-67.383,0
1664560769.764,-70.312,-29.297,-41.992,-62.012,0
1664560769.768,71.777,-35.645,-53.223,6.836,0
1664560769.772,98.145,-33.691,-56.152,28.809,0
1664560769.774,-45.898,-34.668,-41.504,-37.598,0
1664560769.778,-109.375,-41.992,-37.109,-75.684,0
1664560769.782,19.043,-34.180,-41.504,-2.930,0
1664560769.786,96.191,-33.203,-43.457,48.340,0
1664560769.790,-14.648,-30.762,-32.715,-7.812,0
1664560769.794,-93.750,-24.414,-26.367,-46.875,0
1664560769.798,-12.695,-37.109,-43.945,-4.883,0
1664560769.801,97.656,-41.992,-52.734,41.504,0
1664560769.805,30.762,-21.973,-32.227,12.695,0
1664560769.809,-88.379,-19.043,-26.855,-37.109,0
1664560769.813,-62.988,-34.180,-46.875,-34.180,0
1664560769.817,74.707,-30.762,-49.805,32.715,0
1664560769.819,57.129,-23.438,-42.480,26.367,0
1664560769.823,-78.613,-25.391,-37.109,-44.922,0
1664560769.827,-86.914,-27.832,-39.062,-54.688,0
1664560769.831,53.711,-23.438,-45.410,16.113,0
1664560769.835,81.055,-20.508,-40.527,39.551,0
1664560769.839,-52.734,-20.020,-36.133,-31.738,0
1664560769.843,-111.328,-27.832,-38.574,-67.383,0
1664560769.846,0.977,-30.273,-40.039,-13.672,0
1664560769.850,103.516,-13.184,-22.949,53.223,0
1664560769.854,-8.789,-9.277,-24.414,-1.953,0
1664560769.858,-123.047,-15.137,-38.574,-81.055,0
1664560769.862,-28.809,-6.836,-34.668,-31.738,0
1664560769.864,99.121,-6.836,-32.227,41.992,0
1664560769.868,27.832,-9.277,-30.762,5.371,0
1664560769.872,-88.379,-3.418,-30.273,-59.570,0
1664560769.876,-57.617,-6.836,-30.762,-37.598,0
1664560769.880,78.125,-12.207,-35.156,41.016,0
1664560769.884,71.289,-3.906,-33.691,38.086,0
1664560769.888,-61.523,-5.859,-26.367,-40.039,0
1664560769.891,-83.984,-11.719,-29.297,-58.594,0
1664560769.895,54.688,-6.836,-32.227,21.973,0
1664560769.899,85.449,-14.160,-36.133,35.156,0
1664560769.903,-51.270,-18.555,-39.062,-40.039,0
1664560769.907,-116.211,-18.066,-36.621,-66.406,0
1664560769.909,-9.766,-21.484,-39.062,-1.465,0
1664560769.913,83.496,-21.973,-41.504,44.922,0
1664560769.917,-18.066,-20.508,-30.273,-2.930,0
1664560769.921,-111.328,-18.555,-23.438,-46.875,0
1664560769.925,-37.598,-18.066,-26.855,-9.766,0
1664560769.929,98.145,-12.207,-28.809,67.871,0
1664560769.933,51.758,-5.859,-26.855,39.062,0
1664560769.936,-67.383,6.348,-19.531,-21.484,0
1664560769.940,-50.293,2.441,-28.320,-7.324,0
1664560769.944,75.684,-10.254,-37.109,40.527,0
1664560769.948,83.008,-1.953,-20.020,46.387,0
1664560769.952,-48.828,-4.883,-19.531,-16.602,0
1664560769.954,-89.355,-14.160,-25.391,-41.016,0
1664560769.958,36.133,-20.020,-24.902,23.926,0
1664560769.962,99.609,-15.137,-23.438,59.570,0
1664560769.966,-22.461,-5.371,-20.020,-3.906,0
1664560769.970,-103.027,-10.254,-25.391,-56.152,0
1664560769.974,1.953,-11.230,-31.250,-0.488,0
1664560769.978,112.305,-11.230,-31.738,59.082,0
1664560769.981,22.461,-16.113,-32.715,8.301,0
1664560769.985,-104.004,-23.926,-39.062,-71.777,0
1664560769.989,-51.270,-21.973,-37.109,-45.898,0
1664560769.993,91.797,-18.066,-36.621,33.203,0
1664560769.997,49.316,-16.113,-37.109,9.277,0
1664560769.998,-84.961,-13.184,-35.645,-64.941,0
1664560770.002,-75.195,-6.836,-29.297,-55.664,0
1664560770.006,70.312,-4.883,-22.949,29.297,0
1664560770.010,87.402,-3.418,-20.996,41.504,0
1664560770.014,-49.316,-4.883,-26.367,-42.480,0
1664560770.018,-98.633,-5.371,-30.273,-70.312,0
1664560770.022,34.668,-0.488,-20.996,17.578,0
1664560770.025,104.004,-5.371,-25.391,53.711,0
1664560770.029,-31.250,-12.207,-43.945,-34.668,0
1664560770.033,-110.352,-10.742,-41.504,-81.055,0
1664560770.037,-18.555,-12.695,-38.086,-23.438,0
1664560770.041,102.051,-7.324,-38.574,41.992,0
1664560770.045,23.438,-5.371,-36.621,-5.371,0
1664560770.049,-100.586,-5.371,-30.273,-69.336,0
1664560770.053,-54.688,-4.883,-28.320,-41.992,0
1664560770.057,82.031,-8.301,-40.527,22.949,0
1664560770.061,55.176,-9.277,-40.527,12.207,0
1664560770.065,-78.125,-9.277,-25.879,-46.875,0
1664560770.069,-83.008,-16.113,-24.902,-41.016,0
1664560770.072,45.898,-24.902,-39.062,19.531,0
1664560770.076,76.660,-19.531,-35.156,32.715,0
1664560770.080,-49.805,-12.207,-22.949,-22.949,0
1664560770.084,-104.492,-11.230,-26.855,-53.711,0
1664560770.088,3.418,-19.043,-35.645,1.465,0
1664560770.088,89.844,-17.578,-34.180,50.293,0
1664560770.092,-12.207,-8.789,-24.414,-5.371,0
1664560770.096,-110.352,-13.184,-24.902,-62.500,0
1664560770.100,-30.273,-12.695,-29.785,-19.043,0
1664560770.104,99.121,-12.695,-32.227,45.410,0
1664560770.108,42.969,-6.836,-24.902,23.438,0
1664560770.112,-86.426,-9.277,-25.391,-39.062,0
1664560770.115,-69.824,-21.484,-37.598,-46.387,0
1664560770.119,76.172,-15.137,-33.691,28.809,0
1664560770.123,65.918,-7.324,-31.250,29.785,0
1664560770.127,-71.289,-5.371,-30.273,-43.945,0
1664560770.131,-103.027,-12.207,-31.738,-67.383,0
1664560770.148,25.391,-20.020,-35.645,5.371,0
1664560770.152,81.055,-20.996,-36.133,36.621,0
1664560770.156,-48.340,-18.066,-32.715,-34.180,0
1664560770.160,-114.746,-15.625,-28.809,-67.871,0
1664560770.164,-1.465,-14.648,-28.320,-6.836,0
1664560770.168,111.328,-16.113,-31.738,56.152,0
1664560770.172,20.508,-16.602,-37.109,9.766,0
1664560770.175,-105.957,-23.926,-36.621,-63.477,0
1664560770.179,-46.875,-28.320,-31.738,-34.668,0
1664560770.183,92.773,-31.250,-29.297,50.781,0
1664560770.187,26.367,-45.410,-37.598,16.113,0
1664560770.191,-102.051,-39.551,-38.086,-59.082,0
1664560770.193,-63.965,-27.344,-26.367,-42.969,0
1664560770.197,66.406,-30.273,-34.668,19.531,0
1664560770.201,58.105,-34.180,-38.086,14.648,0
1664560770.205,-60.059,-25.391,-20.996,-43.945,0
1664560770.209,-88.379,-22.949,-25.391,-59.082,0
1664560770.213,41.504,-26.855,-36.133,9.766,0
1664560770.217,108.398,-28.809,-30.273,42.480,0
1664560770.220,-19.043,-30.273,-32.715,-33.203,0
1664560770.224,-90.332,-20.508,-23.926,-57.617,0
1664560770.228,-0.488,-30.273,-26.367,1.465,0
1664560770.232,90.820,-41.992,-43.945,39.551,0
1664560770.236,9.766,-27.832,-36.621,3.418,0
1664560770.238,-101.074,-29.297,-34.180,-57.129,0
1664560770.242,-53.711,-38.086,-38.086,-35.645,0
1664560770.246,82.031,-36.133,-35.645,38.086,0
1664560770.250,51.758,-27.832,-31.738,28.320,0
1664560770.254,-72.266,-25.879,-27.832,-36.133,0
1664560770.258,-72.266,-29.785,-30.762,-41.504,0
1664560770.262,52.246,-34.180,-41.016,19.043,0
1664560770.265,76.172,-28.809,-33.691,40.039,0
1664560770.269,-48.340,-25.391,-26.367,-17.578,0
1664560770.273,-117.188,-41.504,-43.945,-65.918,0
1664560770.277,-2.441,-43.945,-52.246,-15.137,0
1664560770.281,85.938,-36.621,-44.434,35.156,0
1664560770.283,-25.391,-34.180,-43.457,-23.438,0
1664560770.287,-117.676,-34.668,-49.316,-83.008,0
1664560770.291,-32.227,-31.738,-42.480,-38.574,0
1664560770.295,88.379,-26.855,-39.551,36.133,0
1664560770.299,6.348,-29.785,-47.363,-7.812,0
1664560770.303,-120.605,-32.227,-43.945,-76.660,0
1664560770.307,-84.961,-32.715,-44.434,-60.547,0
1664560770.310,63.965,-24.902,-40.527,29.785,0
1664560770.314,39.551,-31.250,-42.969,28.320,0
1664560770.318,-112.793,-48.340,-54.688,-64.453,0
1664560770.322,-112.793,-41.504,-45.410,-62.988,0
1664560770.326,36.621,-36.621,-46.387,11.719,0
1664560770.328,67.383,-38.086,-47.363,24.414,0
1664560770.332,-73.730,-37.109,-44.434,-52.246,0
1664560770.336,-128.906,-33.691,-41.016,-84.473,0
1664560770.340,-6.348,-33.203,-39.551,-16.602,0
1664560770.344,76.660,-39.551,-47.852,33.203,0
1664560770.348,-31.250,-37.598,-46.875,-20.020,0
1664560770.352,-125.977,-36.621,-37.109,-70.801,0
1664560770.355,-51.758,-40.527,-34.180,-28.320,0
1664560770.359,62.012,-45.410,-41.504,20.996,0
1664560770.363,-1.465,-40.039,-35.645,-17.578,0
1664560770.367,-110.840,-32.227,-26.367,-71.777,0
1664560770.371,-81.543,-41.504,-30.762,-56.641,0
1664560770.375,56.641,-46.387,-38.086,16.602,0
1664560770.379,60.547,-33.691,-33.203,17.090,0
1664560770.383,-72.266,-31.250,-34.180,-56.152,0
1664560770.387,-105.469,-39.062,-38.574,-73.730,0
1664560770.391,18.066,-48.340,-48.340,-8.789,0
1664560770.395,73.730,-43.945,-46.875,13.672,0
1664560770.399,-34.180,-30.762,-28.320,-36.621,0
1664560770.402,-106.934,-36.133,-34.668,-70.312,0
1664560770.406,-19.043,-44.922,-52.734,-43.945,0
1664560770.410,88.867,-37.598,-47.852,7.324,0
1664560770.414,-10.254,-33.203,-46.875,-36.621,0
1664560770.418,-125.977,-30.762,-43.945,-95.215,0
1664560770.420,-54.199,-28.809,-38.086,-54.688,0
1664560770.424,91.797,-20.020,-32.227,26.855,0
1664560770.428,42.969,-18.066,-35.645,4.395,0
1664560770.432,-84.473,-20.508,-40.039,-64.941,0
1664560770.436,-69.824,-16.602,-39.062,-61.035,0
1664560770.440,65.430,-17.090,-43.945,12.207,0
1664560770.444,77.148,-20.020,-39.062,26.367,0
1664560770.447,-74.219,-26.855,-45.410,-64.941,0
1664560770.451,-123.047,-26.367,-55.664,-96.680,0
1664560770.455,24.414,-19.531,-47.363,-13.184,0
1664560770.459,96.680,-17.090,-40.039,24.414,0
1664560770.463,-30.762,-14.160,-42.969,-44.434,0
1664560770.463,-107.422,-11.719,-37.109,-88.379,0
1664560770.467,-9.766,-17.090,-31.738,-30.762,0
1664560770.471,100.098,-18.066,-38.574,34.668,0
1664560770.475,17.578,-12.207,-36.133,-7.812,0
1664560770.479,-99.609,-12.207,-32.715,-73.242,0
1664560770.483,-41.504,-7.324,-32.227,-31.250,0
1664560770.487,97.168,-7.812,-38.086,48.828,0
1664560770.490,53.223,-16.113,-47.363,13.672,0
1664560770.494,-74.707,-7.812,-36.133,-52.734,0
1664560770.498,-73.242,-9.277,-29.785,-48.340,0
1664560770.502,56.152,-14.648,-33.203,19.043,0
1664560770.506,73.242,-16.602,-29.297,31.738,0
1664560770.524,-59.082,-19.531,-23.438,-35.156,0
1664560770.528,-112.793,-23.926,-26.367,-62.500,0
1664560770.532,1.953,-27.344,-36.133,-3.906,0
1664560770.536,80.566,-24.902,-38.574,33.691,0
1664560770.540,-28.809,-19.531,-28.809,-20.020,0
1664560770.544,-116.699,-19.531,-24.902,-59.082,0
1664560770.548,-33.691,-31.250,-31.738,-16.602,0
1664560770.551,92.773,-27.344,-33.203,48.340,0
1664560770.555,28.809,-16.113,-20.508,18.555,0
1664560770.559,-93.262,-12.207,-19.531,-44.922,0
1664560770.563,-63.477,-20.508,-28.809,-38.086,0
1664560770.567,75.195,-25.391,-26.367,26.367,0
1664560770.568,68.359,-14.648,-15.137,30.762,0
1664560770.572,-61.035,-11.230,-13.672,-37.598,0
1664560770.576,-85.938,-20.996,-24.902,-64.941,0
1664560770.580,52.246,-20.996,-26.367,18.555,0
1664560770.584,90.820,-15.625,-27.832,48.340,0
1664560770.588,-41.992,-10.742,-26.855,-24.414,0
1664560770.592,-109.375,-12.695,-32.227,-69.824,0
1664560770.595,1.465,-14.160,-35.645,-18.066,0
1664560770.599,110.840,-8.789,-23.926,51.270,0
1664560770.603,7.812,-14.648,-24.414,3.418,0
1664560770.607,-109.863,-24.902,-31.738,-67.383,0
1664560770.611,-40.039,-25.879,-26.855,-28.320,0
1664560770.613,84.961,-29.785,-32.227,36.133,0
1664560770.617,17.578,-27.344,-35.645,1.953,0
1664560770.621,-104.004,-17.090,-33.691,-63.477,0
1664560770.625,-70.801,-15.137,-34.180,-48.828,0
1664560770.629,62.988,-21.484,-37.598,19.043,0
1664560770.633,66.406,-15.137,-33.203,29.785,0
1664560770.637,-72.266,-16.113,-35.156,-43.945,0
1664560770.640,-113.281,-27.344,-34.180,-68.848,0
1664560770.644,26.367,-30.762,-30.273,13.184,0
1664560770.648,69.824,-36.133,-44.922,23.438,0
1664560770.652,-62.988,-37.109,-46.875,-53.223,0
1664560770.656,-125.000,-37.109,-40.527,-84.473,0
1664560770.658,-13.672,-36.621,-40.039,-22.949,0
1664560770.662,89.844,-34.668,-41.504,32.227,0
1664560770.666,-8.789,-30.273,-41.992,-20.508,0
1664560770.670,-109.375,-29.785,-41.504,-74.219,0
1664560770.674,-42.480,-38.086,-37.598,-35.156,0
1664560770.678,89.844,-40.039,-32.715,37.598,0
1664560770.682,39.551,-37.109,-35.645,1.953,0
1664560770.685,-73.730,-26.367,-23.926,-46.387,0
1664560770.689,-61.523,-25.391,-25.879,-35.645,0
1664560770.693,64.453,-36.133,-41.992,8.789,0
1664560770.697,83.496,-23.926,-30.273,22.949,0
1664560770.701,-56.152,-22.949,-27.344,-43.945,0
1664560770.703,-99.609,-28.320,-28.809,-73.730,0
1664560770.707,27.832,-23.438,-27.344,-4.883,0
1664560770.711,99.609,-19.043,-29.297,46.875,0
1664560770.715,-21.973,-23.438,-31.250,-14.160,0
1664560770.719,-118.164,-29.785,-34.668,-68.848,0
1664560770.723,-24.414,-29.785,-30.273,-11.230,0
1664560770.727,97.656,-26.855,-24.414,53.223,0
1664560770.730,13.184,-20.996,-19.043,12.695,0
1664560770.734,-112.305,-31.738,-30.762,-65.430,0
1664560770.738,-53.711,-26.367,-34.180,-37.598,0
1664560770.742,92.773,-14.648,-22.461,53.223,0
1664560770.746,47.363,-21.484,-28.809,26.367,0
1664560770.749,-91.797,-27.344,-33.203,-51.270,0
1664560770.753,-88.379,-24.902,-33.203,-51.270,0
1664560770.757,49.805,-23.438,-37.598,23.926,0
1664560770.761,83.496,-23.926,-33.203,42.969,0
1664560770.765,-44.922,-22.461,-29.297,-22.949,90
1664560770.769,-97.168,-26.367,-30.762,-50.781,0
1664560770.773,31.738,-21.973,-25.879,25.391,0
1664560770.776,109.375,-23.438,-25.879,73.242,0
1664560770.780,-15.625,-31.250,-35.156,-13.672,0
1664560770.784,-104.004,-27.832,-30.762,-67.871,0
1664560770.788,-18.555,-26.367,-31.738,-21.973,0
1664560770.792,99.609,-31.738,-41.016,37.598,0
1664560770.793,25.879,-32.715,-35.645,1.953,0
1664560770.797,-91.797,-22.461,-29.785,-55.176,0
1664560770.801,-51.270,-16.113,-32.715,-34.180,0
1664560770.805,80.566,-24.414,-35.156,31.738,0
1664560770.809,62.012,-24.902,-36.621,23.926,0
1664560770.813,-68.848,-20.020,-33.203,-42.480,0
1664560770.817,-87.891,-21.973,-29.785,-46.875,0
1664560770.820,39.551,-25.391,-37.598,9.766,0
1664560770.824,75.684,-26.855,-39.551,21.484,0
1664560770.828,-51.758,-24.414,-32.227,-40.527,0
1664560770.832,-117.188,-22.461,-37.598,-78.613,0
1664560770.836,-11.719,-25.391,-47.363,-20.996,0
1664560770.838,87.402,-27.344,-45.410,31.250,0
1664560770.842,-20.508,-25.391,-40.039,-22.949,0
1664560770.846,-130.371,-29.297,-44.922,-79.590,0
1664560770.850,-61.035,-39.062,-52.734,-45.410,0
1664560770.854,63.965,-42.480,-52.734,25.391,0
1664560770.858,21.973,-30.762,-41.504,10.254,0
1664560770.862,-95.703,-24.414,-46.875,-59.082,0
1664560770.865,-89.844,-34.180,-61.035,-70.801,0
1664560770.869,48.340,-37.109,-57.617,2.441,0
1664560770.873,51.758,-28.320,-51.270,15.137,0
1664560770.877,-91.309,-30.273,-50.293,-65.918,0
1664560770.881,-127.930,-35.156,-55.664,-92.285,0
1664560770.899,10.254,-28.809,-49.316,-13.184,0
1664560770.903,70.801,-23.438,-48.340,21.484,0
1664560770.907,-58.105,-26.855,-51.758,-51.758,0
1664560770.911,-131.348,-37.598,-49.316,-99.121,0
1664560770.915,-20.996,-34.180,-49.805,-34.668,0
1664560770.919,86.914,-24.902,-48.828,31.250,0
1664560770.923,-13.184,-25.879,-54.688,-30.273,0
1664560770.926,-123.535,-25.879,-58.105,-97.656,0
1664560770.930,-56.152,-24.902,-48.340,-52.734,0
1664560770.934,76.172,-23.926,-50.293,27.832,0
1664560770.938,19.531,-30.762,-58.105,-6.348,0
1664560770.942,-110.840,-33.691,-51.758,-80.078,0
1664560770.958,-90.820,-31.738,-47.363,-65.430,0
1664560770.962,48.340,-34.668,-57.129,2.441,0
1664560770.966,57.129,-38.086,-53.711,1.953,0
1664560770.970,-73.242,-35.156,-44.922,-60.059,0
1664560770.974,-114.258,-37.109,-50.293,-77.148,0
1664560770.978,9.277,-45.410,-57.129,-16.602,0
1664560770.982,76.172,-45.410,-60.059,13.672,0
1664560770.985,-50.781,-41.504,-57.129,-50.781,0
1664560770.989,-119.141,-31.738,-38.086,-75.684,0
1664560770.993,-33.203,-40.039,-43.457,-28.320,0
1664560770.997,57.129,-58.105,-65.430,6.836,0
1664560771.001,-14.160,-48.828,-57.129,-28.320,0
1664560770.988,-133.789,-45.410,-58.594,-96.191,0
1664560770.992,-98.633,-52.246,-64.453,-79.102,0
1664560770.996,43.457,-47.852,-57.129,-0.977,0
1664560771.000,19.531,-42.969,-54.199,-12.695,0
1664560771.004,-124.023,-49.805,-62.500,-84.473,0
1664560771.008,-118.164,-53.223,-59.570,-79.102,0
1664560771.012,20.508,-55.176,-58.594,-9.766,0
1664560771.015,42.480,-50.293,-60.059,1.953,0
1664560771.019,-84.961,-42.480,-55.664,-67.383,0
1664560771.023,-141.113,-43.457,-60.547,-104.492,0
1664560771.027,-22.461,-47.852,-59.082,-37.109,0
1664560771.031,77.148,-45.410,-44.434,25.879,0
1664560771.034,-28.320,-42.969,-41.992,-23.438,0
1664560771.038,-137.207,-52.246,-61.523,-95.215,0
1664560771.042,-50.781,-48.828,-59.082,-49.805,0
1664560771.046,83.496,-41.016,-51.270,29.785,0
1664560771.050,8.301,-44.434,-62.988,-12.207,0
1664560771.054,-122.559,-44.434,-69.824,-83.496,0
1664560771.058,-98.633,-46.875,-72.754,-76.660,0
1664560771.061,46.875,-44.922,-66.895,3.906,0
1664560771.065,33.203,-43.457,-66.406,-3.418,0
1664560771.069,-114.746,-48.340,-68.848,-95.703,0
1664560771.073,-117.676,-37.598,-55.176,-91.797,0
1664560771.077,28.809,-35.645,-49.805,-10.254,0
1664560771.079,68.848,-35.156,-50.293,12.695,0
1664560771.083,-67.871,-29.785,-54.199,-61.523,0
1664560771.087,-130.859,-34.668,-50.293,-95.703,0
1664560771.091,-21.973,-40.527,-56.641,-36.133,0
1664560771.095,72.266,-44.434,-69.336,11.719,0
1664560771.099,-24.902,-39.062,-62.988,-37.109,0
1664560771.103,-133.789,-35.156,-61.523,-92.773,0
1664560771.106,-65.918,-41.016,-63.965,-53.223,0
1664560771.110,57.129,-52.246,-68.359,-0.488,0
1664560771.114,2.441,-50.781,-64.941,-29.785,0
1664560771.118,-119.629,-41.504,-58.105,-80.566,0
1664560771.122,-114.258,-46.387,-59.570,-78.613,0
1664560771.124,20.508,-50.781,-65.918,-12.207,0
1664560771.128,36.621,-42.480,-62.012,-6.836,0
1664560771.132,-88.379,-36.621,-56.641,-74.707,0
1664560771.136,-127.441,-40.527,-61.523,-98.145,0
1664560771.140,-11.230,-47.363,-64.453,-39.062,0
1664560771.144,51.270,-47.852,-63.965,-5.859,0
1664560771.148,-65.430,-42.969,-55.176,-56.641,0
1664560771.151,-153.809,-47.363,-59.082,-99.121,0
1664560771.155,-64.941,-54.688,-76.660,-64.453,0
1664560771.159,60.059,-47.852,-72.266,5.371,0
1664560771.163,-24.414,-47.363,-68.359,-46.875,0
1664560771.167,-137.207,-48.340,-68.359,-116.211,0
1664560771.168,-92.773,-50.781,-69.824,-83.008,0
1664560771.172,39.062,-51.758,-67.871,-6.836,0
1664560771.176,10.254,-43.457,-60.059,-21.484,0
1664560771.180,-123.047,-42.969,-58.105,-100.098,0
1664560771.184,-128.906,-48.828,-62.500,-95.215,0
1664560771.188,21.484,-42.969,-56.152,-8.301,0
1664560771.192,52.734,-34.668,-59.082,4.883,0
1664560771.195,-102.539,-47.363,-72.754,-83.496,0
1664560771.199,-146.973,-50.293,-72.266,-113.281,0
1664560771.203,-13.672,-41.016,-64.941,-28.320,0
1664560771.207,49.316,-42.969,-70.801,6.836,0
1664560771.211,-74.707,-48.340,-70.801,-58.594,0
1664560771.229,-155.762,-46.875,-63.965,-96.191,0
1664560771.233,-65.918,-49.805,-65.918,-57.617,0
1664560771.237,50.293,-54.688,-76.172,-9.766,0
1664560771.241,-23.926,-49.805,-78.125,-54.688,0
1664560771.245,-148.926,-56.152,-79.590,-120.605,0
1664560771.249,-104.004,-53.711,-76.172,-83.984,0
1664560771.253,30.273,-52.734,-76.172,-12.207,0
1664560771.256,-8.301,-64.941,-84.961,-46.875,0
1664560771.260,-127.441,-60.547,-79.102,-111.816,0
1664560771.264,-137.695,-57.617,-84.961,-110.352,0
1664560771.268,-20.508,-68.359,-92.773,-53.711,0
1664560771.272,17.578,-72.266,-87.402,-44.922,0
1664560771.273,-108.887,-71.777,-86.426,-117.188,0
1664560771.277,-172.852,-70.801,-83.496,-142.578,0
1664560771.281,-52.246,-72.754,-81.055,-76.172,0
1664560771.285,47.852,-73.730,-83.008,-32.715,0
1664560771.289,-58.594,-65.430,-78.613,-84.961,0
1664560771.293,-161.621,-60.059,-66.895,-123.535,0
1664560771.297,-96.680,-66.406,-73.242,-80.566,0
1664560771.300,24.902,-68.848,-85.449,-29.785,0
1664560771.304,-28.809,-58.105,-73.242,-56.152,0
1664560771.308,-151.367,-58.594,-65.430,-108.398,0
1664560771.312,-150.391,-79.590,-82.031,-106.934,0
1664560771.316,-9.766,-82.520,-85.449,-39.062,0
1664560771.318,5.371,-73.242,-77.637,-41.016,0
1664560771.322,-122.070,-71.289,-78.125,-113.770,0
1664560771.326,-153.809,-73.730,-82.520,-133.301,0
1664560771.330,-27.832,-72.754,-83.496,-54.199,0
1664560771.334,21.973,-74.707,-88.379,-22.461,0
1664560771.338,-111.328,-82.520,-91.309,-98.145,0
1664560771.342,-182.129,-90.332,-95.215,-142.090,0
1664560771.345,-58.594,-84.961,-97.656,-91.797,0
1664560771.349,55.176,-68.359,-80.078,-8.789,0
1664560771.353,-50.293,-71.777,-75.195,-56.152,0
1664560771.357,-168.945,-78.613,-91.309,-148.438,0
1664560771.361,-103.516,-71.777,-87.402,-106.934,0
1664560771.363,23.926,-73.730,-86.426,-29.785,0
1664560771.367,-22.949,-72.266,-90.820,-64.941,0
1664560771.371,-144.043,-71.777,-86.914,-145.996,0
1664560771.375,-125.000,-74.707,-85.938,-130.859,0
1664560771.379,9.766,-74.707,-86.914,-47.363,0
1664560771.383,5.371,-78.613,-85.938,-45.410,0
1664560771.387,-121.094,-84.961,-89.844,-130.371,0
1664560771.390,-155.273,-83.008,-88.867,-154.785,0
1664560771.394,-45.898,-83.984,-89.355,-73.242,0
1664560771.398,5.371,-92.285,-112.305,-50.781,0
1664560771.402,-79.590,-81.543,-107.422,-108.887,0
1664560771.406,-155.273,-78.125,-85.938,-143.066,0
1664560771.409,-109.863,-98.633,-88.379,-113.770,0
1664560771.413,-15.137,-107.422,-98.145,-70.801,0
1664560771.417,-83.008,-101.074,-99.609,-116.699,0
1664560771.421,-192.871,-100.098,-97.168,-172.363,0
1664560771.425,-159.668,-112.305,-108.887,-146.973,0
1664560771.429,-29.297,-118.164,-118.164,-80.078,0
1664560771.433,-70.801,-118.164,-120.605,-104.492,0
1664560771.436,-192.871,-112.793,-114.746,-158.691,0
1664560771.440,-190.430,-116.699,-120.117,-155.762,0
1664560771.444,-65.918,-126.953,-139.160,-111.328,0
1664560771.448,-49.316,-125.000,-135.742,-96.680,0
1664560771.452,-183.594,-119.629,-132.812,-169.434,0
1664560771.454,-223.145,-120.117,-143.555,-206.543,0
1664560771.458,-100.586,-128.906,-147.461,-143.555,0
1664560771.462,-38.574,-130.859,-145.508,-87.891,0
1664560771.466,-162.109,-134.277,-151.367,-146.973,0
1664560771.470,-236.328,-135.742,-156.738,-210.938,0
1664560771.474,-150.879,-141.113,-165.039,-173.828,0
1664560771.478,-40.527,-151.367,-173.828,-113.770,0
1664560771.481,-115.234,-161.621,-175.781,-150.879,0
1664560771.485,-245.605,-174.805,-183.594,-237.305,0
1664560771.489,-222.656,-176.758,-194.336,-233.398,0
1664560771.493,-104.004,-175.781,-201.172,-154.297,0
1664560771.497,-123.535,-179.199,-204.102,-166.504,0
1664560771.499,-258.789,-196.777,-221.191,-260.254,0
1664560771.503,-298.340,-227.539,-251.953,-296.387,0
1664560771.507,-202.637,-257.812,-276.367,-245.117,0
1664560771.511,-195.801,-282.715,-301.270,-249.512,0
1664560771.515,-352.051,-315.430,-335.449,-357.422,0
1664560771.519,-442.871,-344.238,-371.094,-434.570,0
1664560771.523,-348.633,-365.723,-393.066,-383.301,0
1664560771.526,-286.133,-397.461,-421.875,-345.703,0
1664560771.530,-437.012,-429.199,-461.914,-448.242,0
1664560771.534,-570.801,-451.660,-482.422,-524.414,0
1664560771.538,-528.809,-475.586,-503.418,-509.766,0
1664560771.542,-432.129,-502.441,-531.738,-477.051,0
1664560771.543,-498.535,-517.578,-546.875,-526.367,0
1664560771.547,-618.164,-525.391,-550.293,-595.703,0
1664560771.551,-602.051,-539.062,-571.289,-598.145,0
1664560771.555,-489.746,-550.293,-591.797,-545.898,0
1664560771.559,-503.906,-556.641,-590.332,-559.082,0
1664560771.563,-630.859,-561.523,-590.332,-636.230,0
1664560771.567,-666.992,-562.500,-593.750,-641.113,0
1664560771.570,-551.270,-568.359,-608.887,-584.473,0
1664560771.574,-497.559,-569.824,-612.305,-575.684,0
1664560771.578,-620.117,-568.359,-608.887,-645.996,0
1664560771.582,-696.777,-568.848,-607.910,-683.594,0
1664560771.586,-594.727,-570.312,-611.816,-637.207,0
1664560771.589,-496.582,-570.801,-618.652,-584.961,0
1664560771.593,-595.703,-567.383,-606.934,-625.488,0
1664560771.597,-690.918,-563.477,-599.609,-678.711,0
1664560771.601,-631.836,-560.059,-598.145,-627.441,0
1664560771.605,-506.836,-553.711,-591.309,-548.828,0
1664560771.609,-514.648,-535.645,-579.590,-566.895,0
1664560771.613,-641.602,-528.809,-578.613,-635.254,0
1664560771.616,-653.320,-532.715,-584.961,-643.555,0
1664560771.620,-501.465,-518.066,-574.707,-562.012,0
1664560771.624,-466.309,-497.070,-549.805,-527.832,0
1664560771.628,-585.449,-490.723,-537.109,-596.191,0
1664560771.632,-625.977,-486.328,-536.133,-625.488,0
1664560771.648,-496.582,-473.145,-527.344,-550.781,0
1664560771.652,-423.340,-464.844,-524.414,-506.836,0
1664560771.656,-522.949,-452.637,-516.113,-559.082,0
1664560771.660,-577.148,-439.453,-505.371,-595.215,0
1664560771.664,-479.492,-427.734,-492.676,-527.344,0
1664560771.668,-384.766,-422.852,-476.074,-440.430,0
1664560771.672,-448.730,-416.016,-466.309,-485.352,0
1664560771.675,-531.738,-401.855,-458.496,-541.016,0
1664560771.679,-468.750,-383.301,-444.336,-484.863,0
1664560771.683,-348.633,-370.117,-434.570,-398.926,0
1664560771.687,-394.043,-369.141,-438.477,-435.547,0
1664560771.691,-497.559,-357.910,-423.340,-496.094,0
1664560771.693,-485.840,-345.215,-412.109,-483.398,0
1664560771.697,-339.355,-333.984,-411.133,-412.598,0
1664560771.701,-303.711,-321.289,-393.555,-383.789,0
1664560771.705,-413.574,-303.223,-363.770,-425.293,0
1664560771.709,-446.289,-290.527,-354.004,-437.012,0
1664560771.713,-343.262,-288.086,-353.027,-366.699,0
1664560771.717,-249.023,-276.855,-340.820,-304.199,0
1664560771.720,-347.656,-268.555,-328.125,-355.469,0
1664560771.724,-416.992,-245.117,-302.734,-379.395,0
1664560771.728,-318.848,-232.422,-297.363,-329.590,0
1664560771.732,-199.219,-228.516,-312.500,-291.016,0
1664560771.736,-238.281,-205.566,-290.039,-305.176,0
1664560771.738,-343.262,-194.824,-271.973,-346.680,0
1664560771.742,-321.777,-191.895,-267.578,-322.754,0
1664560771.746,-185.059,-181.641,-255.371,-240.234,0
1664560771.750,-177.246,-163.086,-233.398,-225.098,0
1664560771.754,-293.945,-146.973,-218.262,-278.320,0
1664560771.758,-298.340,-140.137,-217.773,-283.203,0
1664560771.762,-164.062,-143.066,-223.633,-212.891,0
1664560771.765,-126.953,-142.090,-219.238,-184.082,71
1664560771.769,-226.074,-120.605,-198.242,-231.934,0
1664560771.773,-296.387,-120.117,-197.754,-263.672,0
1664560771.777,-202.148,-121.582,-199.219,-194.824,0
1664560771.781,-92.773,-111.328,-187.988,-129.395,0
1664560771.783,-183.105,-105.469,-181.641,-180.664,0
1664560771.787,-258.301,-98.145,-177.246,-240.234,0
1664560771.791,-183.594,-91.309,-170.410,-209.473,0
1664560771.795,-77.148,-88.867,-166.992,-135.742,0
1664560771.799,-118.652,-88.867,-167.969,-152.832,0
1664560771.803,-219.238,-82.031,-165.039,-218.750,0
1664560771.807,-229.004,-86.426,-171.875,-209.473,0
1664560771.810,-94.238,-80.078,-164.551,-118.652,0
1664560771.814,-73.242,-69.824,-158.691,-124.512,0
1664560771.818,-219.238,-75.195,-173.340,-215.820,0
1664560771.822,-248.047,-69.336,-167.480,-211.426,0
1664560771.826,-122.559,-64.941,-158.203,-122.070,0
1664560771.829,-60.547,-64.941,-156.738,-100.098,0
1664560771.833,-164.551,-54.199,-151.367,-172.852,0
1664560771.837,-230.469,-41.992,-143.066,-193.848,0
1664560771.841,-136.719,-49.805,-145.508,-139.648,0
1664560771.845,-29.297,-51.758,-144.043,-85.938,0
1664560771.849,-106.934,-46.875,-136.230,-125.000,0
1664560771.853,-214.844,-42.480,-125.000,-176.758,0
1664560771.856,-148.926,-31.250,-117.676,-136.230,0
1664560771.860,-35.645,-33.691,-126.953,-72.754,0
1664560771.864,-85.449,-28.809,-126.953,-102.539,0
1664560771.868,-177.246,-14.160,-116.699,-162.109,0
1664560771.872,-168.945,-8.789,-111.328,-142.090,0
1664560771.873,-43.457,-13.184,-110.840,-70.801,0
1664560771.877,-23.438,-12.207,-102.539,-68.359,0
1664560771.881,-145.508,-1.465,-92.285,-130.859,0
1664560771.885,-186.523,0.488,-87.402,-139.648,0
1664560771.889,-71.777,-3.418,-94.727,-82.520,0
1664560771.893,7.812,-3.418,-96.191,-59.570,0
1664560771.897,-77.148,10.742,-80.078,-89.844,0
1664560771.900,-167.969,16.602,-81.055,-129.395,0
1664560771.904,-112.793,7.812,-95.703,-106.934,0
1664560771.908,3.906,12.207,-85.938,-27.832,0
1664560771.912,-69.824,10.742,-76.660,-63.477,0
1664560771.916,-180.176,7.812,-84.473,-131.836,0
1664560771.919,-132.812,6.348,-91.309,-117.676,0
1664560771.923,-19.043,1.465,-92.285,-44.922,0
1664560771.927,-45.898,3.418,-94.727,-62.988,0
1664560771.931,-169.434,7.812,-93.750,-139.648,0
1664560771.935,-165.039,14.160,-90.820,-131.348,0
1664560771.939,-27.832,15.137,-88.867,-62.988,0
1664560771.943,-12.207,13.672,-80.078,-45.410,0
1664560771.946,-125.488,18.066,-83.984,-117.188,0
1664560771.950,-175.293,17.578,-85.938,-161.133,0
1664560771.954,-79.102,9.277,-78.613,-75.684,0
1664560771.958,7.324,12.695,-82.520,-20.996,0
1664560771.962,-97.656,22.949,-100.586,-111.328,0
1664560771.964,-166.504,36.133,-99.609,-143.066,0
1664560771.968,-81.055,29.785,-85.449,-86.914,0
1664560771.972,4.395,17.090,-81.055,-27.832,0
1664560771.976,-90.820,12.207,-76.172,-66.406,0
1664560771.980,-187.500,5.859,-80.566,-161.133,0
1664560771.984,-142.090,10.254,-80.078,-136.719,0
1664560771.988,-42.480,7.812,-86.426,-60.059,0
1664560771.991,-62.988,2.441,-97.656,-91.309,0
1664560771.995,-167.480,8.301,-87.402,-171.875,0
1664560771.999,-205.566,0.000,-82.520,-164.551,0
1664560772.003,-112.305,-14.648,-83.984,-64.941,0
1664560772.007,-62.500,-12.695,-90.332,-55.664,0
1664560772.024,-158.203,0.000,-90.332,-133.789,0
1664560772.028,-224.121,2.441,-89.844,-158.203,0
1664560772.032,-133.301,-7.324,-105.469,-121.582,0
1664560772.036,-37.598,-16.602,-108.887,-66.406,0
1664560772.040,-121.094,-13.672,-97.168,-104.980,0
1664560772.044,-214.844,-6.348,-94.238,-157.715,0
1664560772.048,-168.945,-18.066,-109.863,-126.953,0
1664560772.051,-51.758,-30.762,-123.047,-78.613,0
1664560772.055,-85.449,-17.578,-117.188,-110.352,0
1664560772.059,-200.195,-6.348,-98.145,-160.645,0
1664560772.063,-217.285,-15.137,-99.121,-134.766,0
1664560772.067,-68.848,-3.906,-104.980,-55.176,0
1664560772.073,-36.621,9.277,-111.328,-85.449,0
1664560772.077,-173.828,2.930,-113.770,-160.645,0
1664560772.081,-207.031,6.836,-105.957,-165.527,0
1664560772.085,-91.797,17.090,-100.586,-97.168,0
1664560772.089,-36.133,16.113,-96.680,-57.129,0
1664560772.093,-122.070,23.438,-93.750,-110.840,0
1664560772.097,-192.871,30.762,-95.215,-163.574,0
1664560772.100,-113.770,27.832,-95.215,-117.676,0
1664560772.104,9.277,42.969,-73.242,-25.391,0
1664560772.108,-80.078,43.945,-79.102,-71.289,0
1664560772.112,-189.453,38.574,-102.051,-159.180,0
1664560772.116,-138.672,41.992,-84.961,-107.910,0
1664560772.113,-15.625,39.062,-83.984,-42.969,0
1664560772.117,-37.109,45.898,-89.844,-67.871,0
1664560772.121,-158.691,46.875,-82.031,-127.441,0
1664560772.125,-147.949,47.363,-77.637,-129.395,0
1664560772.129,-3.906,54.688,-82.031,-31.250,0
1664560772.133,28.809,54.688,-82.520,-4.883,0
1664560772.137,-98.633,55.176,-70.312,-94.238,0
1664560772.140,-187.012,48.340,-54.199,-112.793,0
1664560772.144,-59.570,48.340,-46.387,-29.297,0
1664560772.148,31.250,47.363,-52.734,-2.930,0
1664560772.152,-89.355,49.805,-48.828,-62.500,0
1664560772.156,-159.668,61.035,-38.574,-99.609,0
1664560772.158,-66.406,59.570,-35.156,-59.570,0
1664560772.162,45.898,56.152,-38.086,6.836,0
1664560772.166,-21.484,57.617,-30.273,-20.020,0
1664560772.170,-138.184,56.152,-17.090,-62.500,0
1664560772.174,-94.238,55.176,-15.137,-32.227,0
1664560772.178,53.223,62.012,-15.137,32.715,0
1664560772.182,32.227,69.336,-9.277,35.156,0
1664560772.185,-86.426,74.707,3.906,-18.555,0
1664560772.189,-94.727,71.289,-1.953,-42.480,0
1664560772.193,35.645,64.941,-24.902,6.348,0
1664560772.197,79.102,76.660,-8.789,51.758,0
1664560772.201,-41.016,83.008,3.418,0.488,0
1664560772.203,-109.863,79.590,-1.465,-31.738,0
1664560772.207,2.930,81.055,-6.348,20.996,0
1664560772.211,117.188,95.215,-4.883,68.848,0
1664560772.215,0.488,98.633,7.324,38.086,0
1664560772.219,-94.238,103.516,11.719,-20.996,0
1664560772.223,-11.719,107.422,16.602,14.160,0
1664560772.227,120.117,109.375,15.625,86.426,0
1664560772.230,89.844,121.582,20.020,56.152,0
1664560772.234,-51.758,109.375,15.137,-15.137,0
1664560772.238,-24.902,105.469,10.254,3.906,0
1664560772.242,107.422,109.863,19.531,84.961,0
1664560772.246,84.961,107.422,23.926,73.730,0
1664560772.249,-20.508,110.352,24.414,6.836,0
1664560772.253,-40.527,107.910,28.320,8.789,0
1664560772.257,92.773,115.234,34.180,83.984,0
1664560772.261,155.762,120.605,37.109,116.211,0
1664560772.265,39.062,114.258,34.668,46.875,0
1664560772.269,-35.645,114.258,37.598,14.160,0
1664560772.273,63.965,116.699,46.387,87.891,0
1664560772.276,160.645,115.234,45.898,150.879,0
1664560772.280,82.520,116.699,41.016,82.520,0
1664560772.284,1.953,125.000,51.270,19.043,0
1664560772.288,58.105,132.812,57.129,71.289,0
1664560772.292,180.176,140.137,55.176,150.391,0
1664560772.293,129.883,132.812,62.988,126.953,0
1664560772.297,25.879,135.742,71.289,54.199,0
1664560772.301,45.410,146.484,69.336,55.176,0
1664560772.305,173.340,149.902,65.430,134.766,0
1664560772.309,189.453,166.992,83.496,148.438,0
1664560772.313,74.219,181.641,104.492,98.145,0
1664560772.317,52.734,183.105,108.398,90.332,0
1664560772.320,152.344,181.152,96.680,146.484,0
1664560772.324,201.660,189.941,97.168,182.617,0
1664560772.328,109.375,209.961,120.605,133.789,0
1664560772.332,55.664,217.285,125.000,89.355,0
1664560772.336,145.020,221.191,123.047,145.020,0
1664560772.353,240.723,231.934,130.859,207.031,0
1664560772.357,173.828,243.164,135.742,161.133,0
1664560772.361,85.449,253.418,142.578,102.539,0
1664560772.365,129.395,256.348,149.414,135.254,0
1664560772.369,249.512,251.465,150.879,211.426,0
1664560772.373,238.770,260.254,164.062,204.102,0
1664560772.377,119.629,264.648,167.480,124.023,0
1664560772.380,105.957,259.277,162.598,117.676,0
1664560772.384,241.699,266.602,166.016,203.125,0
1664560772.388,269.043,278.809,177.246,231.934,0
1664560772.392,140.137,274.414,176.758,158.203,0
1664560772.396,88.379,268.555,166.504,118.652,0
1664560772.398,207.520,274.414,172.363,201.172,0
1664560772.402,286.621,274.414,174.316,249.023,0
1664560772.406,181.641,274.902,179.199,192.383,0
1664560772.410,108.887,281.250,183.594,154.785,0
1664560772.414,194.824,291.016,180.664,202.637,0
1664560772.418,284.668,295.898,176.270,247.070,0
1664560772.422,198.242,291.504,167.969,189.941,0
1664560772.425,96.191,291.016,167.480,130.859,0
1664560772.429,141.113,293.457,172.852,160.645,0
1664560772.433,268.555,294.922,171.387,252.930,0
1664560772.437,250.488,290.527,162.109,236.816,0
1664560772.441,125.977,292.969,163.086,155.273,0
1664560772.443,111.328,291.504,164.062,159.668,0
1664560772.447,246.094,280.273,166.504,236.328,0
1664560772.451,283.691,278.809,173.828,253.418,0
1664560772.455,181.152,286.133,179.199,189.941,0
1664560772.459,129.395,286.621,176.270,153.809,0
1664560772.463,212.891,283.203,167.480,213.867,0
1664560772.467,291.504,278.809,158.691,265.137,0
1664560772.470,203.125,279.297,164.062,199.219,0
1664560772.474,111.816,279.785,174.316,150.391,0
1664560772.478,168.457,270.508,173.340,188.477,0
1664560772.482,274.414,264.160,167.480,251.953,0
1664560772.486,225.586,261.719,166.504,215.332,0
1664560772.488,121.094,266.113,173.828,152.344,0
1664560772.492,137.695,262.207,162.598,163.574,0
1664560772.496,258.301,250.977,148.438,224.121,0
1664560772.500,249.023,254.883,157.715,224.609,0
1664560772.504,141.602,263.184,166.504,162.598,0
1664560772.508,132.812,259.277,166.992,152.832,0
1664560772.512,231.934,256.348,165.039,221.191,0
1664560772.515,280.762,258.789,169.922,256.348,0
1664560772.519,181.641,258.301,170.410,196.777,0
1664560772.523,106.445,252.930,157.715,143.555,0
1664560772.527,183.105,246.094,152.344,184.082,0
1664560772.531,270.508,249.023,157.715,249.512,0
1664560772.533,199.219,249.023,162.598,190.918,0
1664560772.537,102.539,241.211,163.574,121.094,0
1664560772.541,140.137,243.164,162.598,169.922,0
1664560772.545,250.488,241.699,162.598,237.793,0
1664560772.549,224.609,235.840,159.668,199.707,0
1664560772.553,110.840,237.793,159.668,139.160,0
1664560772.557,97.656,232.910,160.645,141.113,0
1664560772.560,228.027,233.887,163.086,229.004,0
1664560772.564,249.023,237.793,164.062,238.770,0
1664560772.568,117.188,224.609,154.785,141.602,0
1664560772.572,83.984,229.004,162.598,128.906,0
1664560772.576,208.496,232.910,167.969,206.543,0
1664560772.582,281.738,225.098,156.250,231.445,0
1664560772.586,157.715,221.191,152.344,155.762,0
1664560772.590,74.219,227.539,161.621,123.047,0
1664560772.594,169.922,226.562,165.527,191.406,0
1664560772.598,268.066,225.586,166.016,244.629,0
1664560772.602,212.891,236.328,173.828,187.012,0
1664560772.606,117.188,234.863,174.316,131.836,0
1664560772.609,138.672,229.492,174.316,169.434,0
1664560772.613,246.094,218.750,160.645,228.516,0
1664560772.617,218.750,217.773,159.668,195.801,0
1664560772.621,122.070,228.027,174.316,131.836,0
1664560772.625,93.750,223.145,171.387,132.812,0
1664560772.624,198.730,211.914,160.645,197.266,0
1664560772.628,237.793,210.938,159.180,204.102,0
1664560772.632,130.371,219.238,168.945,141.602,0
1664560772.636,80.078,220.215,171.875,115.723,0
1664560772.640,175.293,208.984,159.180,167.969,0
1664560772.644,251.465,212.891,156.738,213.867,0
1664560772.648,165.527,228.516,171.875,168.457,0
1664560772.651,79.590,220.703,174.316,121.582,0
1664560772.655,133.789,208.008,158.203,149.902,0
1664560772.659,254.883,220.215,162.598,218.262,0
1664560772.663,199.219,217.773,167.969,179.199,0
1664560772.667,87.402,211.426,165.039,108.398,0
1664560772.669,119.141,215.820,171.387,138.672,0
1664560772.673,243.652,214.355,168.945,222.656,0
1664560772.677,225.586,204.102,163.086,204.590,0
1664560772.681,89.355,196.289,157.715,114.258,0
1664560772.685,77.148,197.754,154.297,113.281,0
1664560772.689,211.426,199.219,157.227,198.242,0
1664560772.693,252.441,200.195,159.668,227.051,0
1664560772.696,124.023,192.871,148.926,141.113,0
1664560772.700,61.523,184.082,146.973,94.238,0
1664560772.704,169.434,183.105,154.785,174.805,0
1664560772.708,251.465,186.523,151.855,223.145,0
1664560772.712,153.809,191.406,147.949,158.691,0
1664560772.714,62.988,190.918,145.020,107.422,0
1664560772.718,130.859,192.871,142.578,152.344,0
1664560772.722,247.070,195.312,142.090,221.191,0
1664560772.726,198.730,190.918,146.484,181.152,0
1664560772.730,80.078,185.547,148.926,111.816,0
1664560772.734,96.680,190.430,151.855,138.184,0
1664560772.738,217.773,187.500,144.043,213.867,0
1664560772.741,200.195,171.875,133.789,192.871,0
1664560772.745,92.773,181.152,146.484,126.465,0
1664560772.749,72.266,190.430,150.391,116.211,0
1664560772.753,179.199,177.734,134.277,171.875,0
1664560772.757,229.004,176.270,128.906,195.312,0
1664560772.788,126.953,184.082,142.578,135.254,0
1664560772.792,64.941,185.059,146.484,97.656,0
1664560772.796,148.926,182.617,138.672,154.785,0
1664560772.800,231.934,178.223,133.789,209.961,0
1664560772.804,154.785,177.734,134.766,153.320,0
1664560772.808,62.988,181.152,137.695,99.121,0
1664560772.812,97.656,178.223,127.930,134.277,0
1664560772.815,209.473,174.316,120.117,200.195,0
1664560772.819,187.012,172.852,131.836,172.363,0
1664560772.823,76.660,172.363,135.742,104.980,0
1664560772.827,69.336,171.387,131.348,103.027,0
1664560772.831,190.918,173.828,134.277,177.734,0
1664560772.818,214.844,178.711,133.789,197.266,0
1664560772.822,106.934,176.270,131.836,126.953,0
1664560772.826,56.641,167.480,129.395,97.656,0
1664560772.830,163.574,170.410,125.000,170.410,0
1664560772.834,242.188,175.293,124.023,216.309,0
1664560772.838,132.324,174.316,128.906,146.973,0
1664560772.842,45.410,165.039,119.629,92.773,0
1664560772.845,123.535,160.645,116.211,147.949,0
1664560772.849,223.633,162.109,120.117,208.984,0
1664560772.853,154.297,160.645,115.234,152.832,0
1664560772.857,42.969,160.156,114.258,86.426,0
1664560772.861,80.078,156.250,113.770,116.699,0
1664560772.864,212.891,160.645,124.512,211.426,0
1664560772.868,189.453,160.156,123.047,191.895,0
1664560772.872,54.199,149.902,110.840,88.379,0
1664560772.876,50.293,150.879,118.652,84.473,0
1664560772.880,176.758,151.367,113.281,164.551,0
1664560772.884,202.637,153.320,109.375,186.035,0
1664560772.888,76.660,153.809,111.816,104.004,0
1664560772.891,30.273,153.320,106.445,71.289,0
1664560772.895,153.320,156.250,108.398,161.133,0
1664560772.899,211.426,141.602,97.656,194.824,0
1664560772.903,104.004,144.043,94.238,118.164,0
1664560772.907,31.738,154.785,105.469,70.312,0
1664560772.908,97.168,150.879,104.004,116.699,0
1664560772.912,205.078,145.508,96.680,178.223,0
1664560772.916,150.879,146.484,102.051,136.719,0
1664560772.920,46.387,151.855,110.840,77.637,0
1664560772.924,69.824,146.484,103.516,93.262,0
1664560772.928,177.734,140.137,98.145,164.062,0
1664560772.932,164.551,138.184,96.191,145.508,0
1664560772.935,62.988,149.902,101.074,85.449,0
1664560772.939,45.898,149.902,95.215,94.727,0
1664560772.943,133.789,127.441,79.590,130.371,0
1664560772.947,147.949,127.930,89.355,135.742,0
1664560772.951,41.504,137.207,93.750,71.777,0
1664560772.953,-8.301,138.672,90.820,41.992,0
1664560772.957,80.566,133.789,85.449,101.074,0
1664560772.961,173.340,134.277,86.426,154.297,0
1664560772.965,96.680,136.230,87.891,104.004,0
1664560772.969,4.395,139.160,84.473,43.457,0
1664560772.973,55.664,136.719,81.543,79.102,0
1664560772.977,169.922,135.254,77.637,150.879,0
1664560772.980,133.789,137.695,84.473,135.254,0
1664560772.984,22.461,132.812,80.078,56.152,0
1664560772.988,36.133,135.742,79.102,62.500,0
1664560772.992,165.527,140.137,88.867,153.320,0
1664560772.996,176.758,141.113,84.473,145.996,0
1664560772.999,49.805,135.742,77.148,56.641,0
1664560773.003,14.160,134.766,83.008,42.969,0
1664560773.007,130.859,139.648,88.379,125.488,0
1664560773.011,187.988,137.695,83.008,155.762,0
1664560773.015,72.266,129.395,76.660,71.777,0
1664560773.019,-0.488,129.883,75.195,22.461,0
1664560773.023,101.562,142.090,81.055,98.633,0
1664560773.026,194.824,139.648,75.684,161.621,0
1664560773.030,92.285,128.906,60.547,85.938,0
1664560773.034,-6.348,134.766,64.941,32.227,0
1664560773.038,48.828,138.184,68.359,68.848,0
1664560773.042,172.363,131.836,62.988,135.254,0
1664560773.044,147.461,131.348,65.430,110.840,0
1664560773.048,41.016,142.578,76.172,44.434,0
1664560773.052,38.574,141.113,79.590,53.223,0
1664560773.056,142.090,130.371,67.383,117.188,0
1664560773.060,160.645,128.418,63.965,120.605,0
1664560773.064,54.199,131.836,70.312,51.758,0
1664560773.068,16.113,140.137,72.754,42.480,0
1664560773.071,113.770,130.371,57.617,96.191,0
1664560773.075,171.875,124.023,49.805,119.629,0
1664560773.079,80.078,133.301,62.500,64.941,0
1664560773.083,3.418,126.953,63.965,17.578,0
1664560773.087,74.219,122.559,62.012,64.941,0
1664560773.089,181.641,127.930,56.641,122.070,0
1664560773.093,117.188,124.023,57.617,83.496,0
1664560773.097,10.254,118.164,61.035,22.461,0
1664560773.101,34.180,114.746,58.105,43.457,0
1664560773.105,155.273,110.352,52.734,110.840,0
1664560773.109,149.902,121.582,67.871,121.094,0
1664560773.113,38.086,122.559,73.242,62.012,0
1664560773.116,10.742,106.934,60.059,34.668,0
1664560773.120,127.441,108.887,58.594,111.328,0
1664560773.124,175.781,119.629,56.152,133.301,0
1664560773.128,74.707,123.047,62.988,68.359,0
1664560773.132,0.488,116.211,66.406,34.180,0
1664560773.148,79.102,114.258,62.988,83.984,0
1664560773.152,158.691,117.188,57.129,125.488,0
1664560773.156,74.219,115.234,57.617,68.359,0
1664560773.160,-16.602,111.328,64.453,13.184,0
1664560773.164,41.992,111.816,69.336,59.570,0
1664560773.168,160.645,107.910,70.801,138.184,0
1664560773.172,99.121,100.098,62.500,92.285,0
1664560773.175,-12.207,101.074,59.082,22.949,0
1664560773.179,17.578,107.422,66.895,50.293,0
1664560773.183,146.484,111.328,66.895,135.254,0
1664560773.187,135.254,102.539,53.223,112.305,0
1664560773.191,19.043,107.422,54.688,35.645,0
1664560773.193,-6.836,111.328,58.594,38.086,0
1664560773.197,105.469,101.562,54.199,104.004,0
1664560773.201,153.320,100.586,55.664,120.117,0
1664560773.205,45.898,104.492,59.082,52.734,0
1664560773.209,-20.508,95.703,58.594,18.066,0
1664560773.213,66.895,92.285,58.105,79.590,0
1664560773.217,155.273,94.727,57.129,124.512,0
1664560773.220,64.453,89.355,54.688,58.105,0
1664560773.224,-17.578,97.168,59.570,17.090,0
1664560773.228,35.156,96.191,57.129,55.664,0
1664560773.232,131.836,88.379,47.363,106.445,0
1664560773.236,101.562,97.168,58.594,89.355,0
1664560773.254,-11.719,93.262,64.941,20.996,0
1664560773.258,-14.160,90.820,58.105,25.391,0
1664560773.262,111.328,96.680,51.758,107.422,0
1664560773.266,135.742,98.633,60.547,117.188,0
1664560773.270,27.344,106.934,71.777,47.852,0
1664560773.274,-16.113,108.398,67.383,27.344,0
1664560773.278,93.262,102.539,60.059,92.773,0
1664560773.281,154.297,102.539,53.223,126.953,0
1664560773.285,55.176,104.492,62.988,74.707,0
1664560773.289,-33.691,93.750,61.035,14.648,0
1664560773.293,37.598,87.891,49.805,49.805,0
1664560773.297,148.926,97.656,53.711,120.605,0
1664560773.283,71.289,101.074,62.012,69.336,0
1664560773.287,-34.668,95.215,58.105,-2.441,0
1664560773.291,5.371,91.797,53.223,26.855,0
1664560773.295,116.699,93.262,56.641,95.703,0
1664560773.299,82.031,100.098,59.082,65.918,0
1664560773.303,-45.410,107.422,66.895,-16.602,0
1664560773.307,-65.918,104.492,58.594,-32.227,0
1664560773.310,39.062,104.980,61.035,38.086,0
1664560773.314,50.781,102.051,67.871,33.691,0
1664560773.318,-80.566,99.609,64.453,-62.500,0
1664560773.322,-138.184,103.516,72.754,-106.445,0
1664560773.326,-40.039,112.793,85.449,-44.922,0
1664560773.329,3.906,107.910,82.520,-23.926,0
1664560773.333,-125.000,99.121,67.871,-129.883,0
1664560773.337,-209.473,100.586,81.543,-174.805,0
1664560773.341,-138.672,88.867,93.750,-121.094,0
1664560773.345,-36.133,79.590,87.402,-58.594,0
1664560773.349,-88.379,85.938,85.449,-99.121,0
1664560773.353,-183.105,89.844,81.055,-166.504,0
1664560773.356,-155.762,87.891,76.660,-129.883,0
1664560773.360,-35.645,77.637,67.383,-58.105,0
1664560773.364,-27.832,82.031,65.430,-63.965,0
1664560773.368,-125.000,99.121,68.359,-122.070,0
1664560773.372,-135.742,101.562,59.570,-122.070,0
1664560773.374,-17.090,96.680,46.875,-38.574,0
1664560773.378,33.203,100.098,49.805,-3.906,0
1664560773.382,-61.035,104.980,56.641,-58.594,0
1664560773.386,-104.980,106.934,54.199,-82.031,0
1664560773.390,2.441,102.051,50.293,-10.742,0
1664560773.394,104.004,95.703,47.852,47.363,0
1664560773.398,37.598,104.004,53.711,16.602,0
1664560773.401,-50.781,101.562,49.805,-26.367,0
1664560773.405,10.254,88.379,33.691,3.418,0
1664560773.409,140.625,92.285,33.691,86.914,0
1664560773.413,100.098,98.145,32.715,66.895,0
1664560773.417,4.883,104.492,31.250,4.883,0
1664560773.418,25.391,105.957,27.344,15.625,0
1664560773.422,141.602,101.074,21.973,95.215,0
1664560773.426,154.297,96.191,19.531,95.215,0
1664560773.430,36.133,93.750,13.184,13.184,0
1664560773.434,4.395,94.238,11.230,8.789,0
1664560773.438,131.348,98.633,13.184,102.539,0
1664560773.442,196.777,102.051,15.625,145.996,0
1664560773.445,77.637,93.750,8.301,58.105,0
1664560773.449,-9.766,90.332,3.906,3.906,0
1664560773.453,86.426,99.609,12.207,84.961,0
1664560773.457,178.223,95.215,7.324,141.602,0
1664560773.461,91.797,97.656,4.395,78.125,0
1664560773.463,5.371,103.027,7.812,20.508,0
1664560773.467,61.523,98.633,9.277,63.965,0
1664560773.471,176.270,91.797,6.836,145.996,0
1664560773.475,139.160,93.750,5.859,118.164,0
1664560773.479,22.461,95.215,9.277,40.039,0
1664560773.483,31.250,96.680,17.578,57.617,0
1664560773.487,146.484,94.238,12.207,129.395,0
1664560773.490,146.973,89.844,4.883,113.281,0
1664560773.494,38.574,93.750,16.113,41.016,0
1664560773.498,0.488,94.727,22.461,24.414,0
1664560773.502,99.121,90.820,16.113,86.914,0
1664560773.506,157.715,91.309,10.742,118.164,0
1664560773.523,63.477,94.238,13.672,51.758,0
1664560773.527,-11.719,90.820,11.719,0.977,0
1664560773.531,59.082,90.820,13.672,68.359,0
1664560773.535,161.133,94.238,17.090,128.906,0
1664560773.539,97.168,97.168,24.414,74.707,0
