timestamps,TP9,AF7,AF8,TP10
1664561356.824,-139.160,-29.297,-39.062,-53.223
1664561356.828,-71.289,-26.855,-39.551,-31.738
1664561356.832,43.945,-25.879,-34.668,0.488
1664561356.836,-5.371,-25.391,-33.203,-18.066
1664561356.840,-113.281,-23.926,-32.715,-50.293
1664561356.844,-94.727,-24.414,-33.203,-44.434
1664561356.848,29.785,-21.484,-33.691,-13.184
1664561356.851,34.668,-25.879,-35.645,-17.090
1664561356.855,-87.402,-31.250,-31.738,-53.711
1664561356.859,-114.746,-30.273,-28.809,-55.176
1664561356.863,-0.488,-30.762,-25.879,-20.508
1664561356.867,54.199,-36.133,-21.973,-8.301
1664561356.867,54.199,-36.133,-21.973,-8.301
1664561356.870,-17.090,-30.273,-32.227,-29.297
1664561356.874,-125.977,-31.250,-40.527,-59.570
1664561356.878,-76.172,-35.645,-37.598,-40.527
1664561356.881,46.387,-34.180,-35.645,-11.719
1664561356.885,16.602,-29.785,-36.133,-18.066
1664561356.889,-102.051,-31.738,-30.273,-48.340
1664561356.893,-99.121,-24.902,-21.973,-54.688
1664561356.897,27.832,-17.578,-15.137,-19.043
1664561356.899,48.828,-19.043,-18.555,-8.301
1664561356.903,-78.613,-24.902,-22.949,-47.363
1664561356.907,-121.094,-29.785,-25.391,-70.801
1664561356.911,-7.812,-34.668,-29.785,-37.598
1664561356.915,65.918,-32.227,-36.621,-7.812
1664561356.919,-31.738,-21.484,-32.227,-33.203
1664561356.923,-115.234,-19.531,-28.320,-62.012
1664561356.926,-38.086,-21.484,-33.691,-41.992
1664561356.930,54.199,-25.879,-30.273,-8.789
1664561356.934,-20.020,-29.785,-24.902,-27.832
1664561356.938,-118.652,-22.949,-31.250,-58.105
1664561356.942,-81.543,-23.438,-34.180,-44.434
1664561356.959,44.434,-30.273,-30.273,-4.395
1664561356.963,28.809,-25.879,-31.738,-12.207
1664561356.967,-88.379,-19.531,-28.320,-45.898
1664561356.971,-99.121,-21.484,-23.926,-41.992
1664561356.975,14.648,-24.902,-27.832,-9.766
1664561356.979,44.434,-20.508,-31.738,-1.953
1664561356.983,-73.242,-14.160,-31.250,-37.598
1664561356.986,-124.512,-15.137,-27.832,-42.480
1664561356.990,-22.461,-25.879,-28.809,-6.348
1664561356.994,57.129,-27.832,-29.297,4.395
1664561356.998,-35.645,-18.555,-33.203,-25.391
1664561357.002,-125.977,-24.902,-44.434,-46.875
1664561356.993,-57.617,-20.508,-49.316,-28.809
1664561356.997,61.523,-11.230,-44.434,2.930
1664561357.001,4.395,-25.391,-38.086,-12.207
1664561357.005,-116.211,-30.273,-37.109,-48.340
1664561357.009,-84.473,-23.438,-41.504,-45.410
1664561357.013,39.551,-30.273,-39.551,-13.184
1664561357.017,32.227,-36.621,-39.551,-12.695
1664561357.020,-85.938,-20.020,-40.527,-41.016
1664561357.024,-106.445,-18.555,-41.992,-48.340
1664561357.028,7.812,-34.668,-51.758,-17.578
1664561357.032,47.852,-33.203,-55.664,-4.883
1664561357.036,-63.965,-28.809,-47.363,-36.133
1664561357.049,-122.559,-36.133,-36.133,-51.758
1664561357.053,-31.250,-43.457,-38.086,-27.344
1664561357.057,58.105,-43.945,-40.527,-5.371
1664561357.061,-35.645,-35.645,-39.062,-31.250
1664561357.065,-130.371,-27.344,-44.434,-61.035
1664561357.069,-58.594,-23.438,-43.457,-39.062
1664561357.073,53.711,-28.809,-40.527,-8.789
1664561357.076,4.395,-35.645,-43.945,-19.531
1664561357.080,-114.746,-35.156,-45.898,-51.758
1664561357.084,-93.750,-32.715,-47.363,-55.664
1664561357.088,26.855,-32.715,-50.293,-16.113
1664561357.092,19.043,-36.133,-52.246,-14.648
1664561357.081,-105.469,-29.785,-44.922,-57.129
1664561357.085,-131.348,-26.855,-37.598,-58.105
1664561357.089,-9.766,-28.320,-34.180,-14.160
1664561357.093,36.621,-20.996,-38.086,-6.348
1664561357.097,-77.148,-27.344,-42.480,-44.922
1664561357.101,-138.672,-36.621,-43.457,-64.941
1664561357.105,-52.734,-36.133,-45.410,-38.086
1664561357.108,46.387,-33.691,-43.945,-4.883
1664561357.112,-22.949,-31.738,-39.551,-20.996
1664561357.116,-124.512,-23.926,-34.180,-48.828
1664561357.120,-88.867,-22.461,-41.016,-53.711
1664561357.124,28.809,-22.949,-41.504,-23.926
1664561357.131,3.906,-20.020,-25.879,-21.484
1664561357.135,-114.258,-23.926,-24.902,-50.781
1664561357.139,-110.352,-23.438,-31.250,-45.898
1664561357.143,20.020,-20.508,-26.855,-9.766
1664561357.147,43.457,-20.996,-26.367,-5.371
1664561357.151,-81.055,-16.113,-28.809,-36.621
1664561357.155,-124.512,-15.625,-33.691,-44.434
1664561357.158,-5.371,-18.555,-35.645,-12.695
1664561357.162,59.570,-17.090,-28.809,1.465
1664561357.166,-62.012,-24.414,-36.133,-41.016
1664561357.170,-143.555,-29.785,-39.551,-67.383
1664561357.174,-55.176,-20.996,-31.250,-40.527
1664561357.185,47.363,-21.973,-33.691,-10.254
1664561357.189,-23.438,-26.855,-38.086,-31.738
1664561357.193,-131.348,-24.902,-36.621,-63.477
1664561357.197,-83.984,-22.949,-37.598,-51.758
1664561357.201,37.598,-20.996,-40.039,-13.672
1664561357.205,10.742,-21.484,-36.621,-20.020
1664561357.209,-112.305,-27.344,-31.738,-56.641
1664561357.212,-121.094,-31.738,-32.227,-57.617
1664561357.216,6.348,-33.203,-35.156,-21.973
1664561357.220,38.574,-22.461,-32.715,-6.348
1664561357.224,-84.473,-23.926,-32.715,-36.133
1664561357.228,-132.812,-29.785,-32.715,-56.641
1664561357.244,-21.484,-27.344,-36.621,-25.391
1664561357.248,55.176,-29.785,-41.992,2.441
1664561357.252,-47.852,-34.180,-42.969,-30.762
1664561357.256,-134.766,-35.156,-41.016,-64.453
1664561357.260,-57.129,-32.227,-42.480,-47.852
1664561357.264,56.152,-26.855,-49.805,-14.160
1664561357.268,2.930,-25.879,-48.828,-28.320
1664561357.271,-109.375,-30.762,-47.852,-60.059
1664561357.275,-84.473,-34.180,-44.434,-48.340
1664561357.279,35.156,-40.039,-39.551,-11.719
1664561357.283,13.184,-41.504,-44.434,-27.344
1664561357.287,-110.352,-36.133,-44.922,-65.918
1664561357.275,-123.047,-36.133,-43.457,-68.359
1664561357.279,-3.418,-29.785,-49.805,-30.273
1664561357.283,41.016,-31.250,-49.805,-13.672
1664561357.287,-74.219,-34.180,-44.922,-39.551
1664561357.291,-135.742,-31.250,-47.363,-56.152
1664561357.295,-37.109,-31.250,-41.504,-33.691
1664561357.299,48.828,-24.902,-47.852,-10.742
1664561357.302,-38.086,-19.043,-53.711,-32.715
1664561357.306,-126.465,-21.484,-46.875,-60.547
1664561357.310,-66.406,-24.902,-39.062,-44.922
1664561357.314,49.316,-27.832,-34.180,-18.555
1664561357.318,3.418,-21.973,-39.551,-29.297
1664561357.365,-116.699,-18.555,-34.668,-48.340
1664561357.369,-95.703,-23.438,-30.273,-45.898
1664561357.373,35.156,-20.508,-37.598,-8.789
1664561357.377,42.480,-16.113,-31.250,-2.930
1664561357.381,-81.543,-20.020,-29.297,-44.922
1664561357.385,-116.211,-23.926,-41.992,-57.617
1664561357.389,0.977,-26.855,-41.992,-25.879
1664561357.392,49.316,-29.785,-44.434,-11.719
1664561357.396,-70.801,-29.785,-41.992,-41.992
1664561357.400,-137.207,-32.715,-30.762,-64.941
1664561357.404,-40.039,-34.180,-32.227,-35.645
1664561357.408,51.758,-40.039,-34.180,-12.207
1664561357.394,-26.855,-39.551,-27.344,-40.039
1664561357.398,-130.859,-33.691,-25.391,-72.266
1664561357.402,-88.867,-38.574,-33.691,-55.664
1664561357.406,38.086,-32.227,-41.992,-12.207
1664561357.410,11.719,-27.832,-35.645,-21.973
1664561357.414,-110.840,-35.156,-26.367,-54.688
1664561357.418,-113.770,-40.527,-37.598,-52.246
1664561357.421,8.789,-42.480,-39.551,-15.625
1664561357.425,30.762,-40.039,-31.738,-8.301
1664561357.429,-79.590,-32.715,-28.320,-35.645
1664561357.433,-114.746,-25.879,-20.996,-42.969
1664561357.437,-5.371,-22.949,-23.926,-23.926
1664561357.409,56.641,-26.367,-29.785,-6.836
1664561357.413,-52.246,-28.809,-23.926,-28.320
1664561357.417,-131.348,-32.227,-26.367,-52.246
1664561357.421,-43.945,-30.273,-30.273,-29.785
1664561357.425,57.129,-36.621,-27.344,2.441
1664561357.429,-17.578,-38.086,-28.320,-24.414
1664561357.433,-119.141,-29.785,-23.926,-48.340
1664561357.436,-71.777,-26.855,-26.855,-26.855
1664561357.440,50.293,-23.438,-35.156,-0.977
1664561357.444,22.461,-21.484,-31.738,-10.254
1664561357.448,-98.145,-23.926,-25.391,-39.062
1664561357.452,-100.586,-27.832,-25.391,-39.062
1664561357.454,28.809,-24.414,-26.855,-3.418
1664561357.458,66.895,-18.066,-21.973,5.859
1664561357.462,-53.223,-20.996,-17.090,-25.879
1664561357.466,-105.957,-20.508,-16.602,-42.969
1664561357.470,0.000,-21.484,-16.602,-19.043
1664561357.474,76.172,-25.391,-17.578,7.812
1664561357.478,-28.809,-20.996,-20.508,-16.602
1664561357.481,-110.352,-15.137,-26.367,-42.969
1664561357.485,-24.414,-16.113,-22.461,-15.137
1664561357.489,71.777,-23.926,-13.672,14.160
1664561357.493,-8.301,-23.926,-15.625,-17.090
1664561357.497,-128.906,-27.832,-19.043,-50.293
1664561357.499,-87.891,-33.691,-19.043,-40.527
1664561357.503,41.992,-33.691,-16.113,-12.695
1664561357.507,21.973,-28.809,-17.578,-14.648
1664561357.511,-101.562,-23.926,-20.020,-41.992
1664561357.515,-108.398,-23.926,-17.578,-42.969
1664561357.519,10.254,-22.949,-23.438,-8.301
1664561357.523,48.340,-25.391,-30.273,2.441
1664561357.526,-57.129,-19.043,-21.484,-24.414
1664561357.530,-120.605,-21.484,-21.484,-42.480
1664561357.534,-20.996,-30.273,-22.949,-9.277
1664561357.538,67.871,-25.879,-15.625,14.160
1664561357.542,-31.738,-26.367,-24.902,-27.344
1664561357.559,-132.324,-26.855,-32.715,-61.035
1664561357.563,-66.406,-31.250,-29.297,-45.898
1664561357.567,54.199,-29.785,-31.738,-14.160
1664561357.571,2.930,-25.879,-34.668,-24.414
1664561357.575,-116.699,-34.180,-38.574,-59.570
1664561357.579,-99.121,-31.738,-35.645,-55.664
1664561357.583,25.879,-29.297,-27.832,-16.602
1664561357.586,25.879,-37.598,-28.320,-18.555
1664561357.590,-99.121,-37.598,-29.297,-51.758
1664561357.594,-122.559,-37.109,-27.832,-53.711
1664561357.598,-3.906,-32.227,-29.297,-19.043
1664561357.602,46.875,-29.297,-32.715,-8.301
1664561357.619,-62.500,-36.133,-30.762,-39.062
1664561357.623,-126.465,-34.180,-22.949,-48.340
1664561357.627,-32.715,-29.297,-24.902,-23.926
1664561357.631,67.871,-31.738,-28.320,-1.465
1664561357.635,-17.090,-39.062,-30.762,-25.391
1664561357.639,-115.723,-35.156,-29.785,-54.199
1664561357.643,-53.711,-28.320,-20.020,-32.715
1664561357.646,47.363,-35.156,-31.250,-6.348
1664561357.650,0.977,-38.086,-37.109,-21.973
1664561357.654,-115.723,-33.691,-31.738,-54.688
1664561357.658,-113.770,-36.621,-36.621,-58.594
1664561357.662,5.371,-36.621,-44.922,-20.996
1664561357.667,26.855,-41.016,-44.922,-12.207
1664561357.671,-95.215,-47.363,-42.480,-53.223
1664561357.675,-136.719,-39.062,-37.598,-62.988
1664561357.679,-25.879,-37.598,-33.691,-23.926
1664561357.683,37.598,-34.668,-32.715,-3.418
1664561357.687,-69.824,-31.738,-31.250,-37.598
1664561357.691,-145.996,-39.551,-30.273,-64.453
1664561357.694,-60.059,-39.062,-25.879,-41.016
1664561357.698,36.133,-37.109,-21.484,-19.531
1664561357.702,-44.922,-43.945,-25.879,-45.410
1664561357.706,-144.043,-43.945,-29.297,-79.102
1664561357.710,-98.633,-36.133,-33.203,-62.012
1664561357.694,17.090,-36.133,-33.691,-18.066
1664561357.698,-3.418,-37.598,-19.531,-28.320
1664561357.702,-123.535,-41.504,-15.625,-64.941
1664561357.706,-130.859,-44.434,-24.902,-65.430
1664561357.710,-2.930,-41.504,-26.855,-32.227
1664561357.714,25.391,-33.691,-28.320,-25.879
1664561357.718,-93.750,-26.855,-31.250,-60.059
1664561357.721,-143.555,-33.203,-37.109,-76.172
1664561357.725,-43.457,-46.387,-47.852,-52.734
1664561357.729,42.480,-41.992,-44.922,-27.344
1664561357.733,-51.270,-32.715,-41.016,-59.082
1664561357.737,-143.555,-28.809,-43.457,-81.055
1664561357.739,-64.941,-24.414,-38.086,-44.434
1664561357.743,57.617,-22.461,-31.250,-11.230
1664561357.747,0.000,-15.625,-24.902,-26.367
1664561357.751,-112.793,-18.066,-26.855,-57.129
1664561357.755,-75.684,-29.785,-30.762,-47.852
1664561357.759,48.828,-28.320,-32.227,-12.207
1664561357.763,33.691,-28.809,-29.785,-16.113
1664561357.766,-95.215,-33.203,-29.297,-53.711
1664561357.770,-109.863,-27.832,-26.367,-55.176
1664561357.774,10.742,-23.926,-20.020,-15.625
1664561357.778,42.480,-27.832,-24.902,-3.418
1664561357.782,-71.289,-31.738,-31.738,-35.645
1664561357.784,-120.605,-25.391,-31.250,-54.199
1664561357.788,-14.648,-20.020,-26.367,-20.996
1664561357.792,67.871,-26.855,-27.344,6.836
1664561357.796,-25.391,-24.902,-27.344,-20.020
1664561357.800,-109.863,-14.648,-24.414,-46.387
1664561357.804,-50.293,-18.066,-32.227,-33.203
1664561357.808,56.641,-20.020,-37.598,1.953
1664561357.811,6.836,-20.020,-29.297,-9.277
1664561357.815,-108.887,-25.391,-25.879,-55.176
1664561357.819,-79.590,-31.738,-36.621,-54.688
1664561357.823,43.457,-37.598,-47.363,-16.113
1664561357.827,37.109,-38.086,-49.316,-11.719
1664561357.829,-88.867,-36.133,-47.852,-44.434
1664561357.833,-116.211,-29.785,-39.551,-57.129
1664561357.837,5.859,-31.738,-35.156,-33.691
1664561357.841,59.082,-33.691,-33.691,-17.090
1664561357.845,-62.500,-36.621,-35.156,-44.922
1664561357.849,-122.559,-39.551,-41.016,-66.406
1664561357.853,-26.855,-36.621,-38.574,-33.203
1664561357.856,59.082,-33.203,-42.969,-6.836
1664561357.860,-28.320,-31.738,-48.340,-33.691
1664561357.864,-130.859,-35.156,-48.340,-62.012
1664561357.868,-80.078,-40.527,-52.246,-46.387
1664561357.872,37.598,-41.992,-47.363,-8.789
1664561357.874,7.812,-36.621,-43.945,-19.043
1664561357.878,-112.793,-33.691,-46.387,-52.734
1664561357.882,-110.840,-36.133,-46.875,-49.316
1664561357.886,17.090,-37.109,-42.969,-16.113
1664561357.890,28.809,-40.527,-42.969,-20.020
1664561357.894,-91.797,-38.574,-50.781,-53.711
1664561357.898,-125.488,-37.598,-51.758,-62.012
1664561357.901,-9.277,-37.598,-48.340,-32.715
1664561357.905,54.688,-31.250,-45.410,-12.207
1664561357.909,-54.199,-29.297,-44.922,-40.527
1664561357.913,-132.812,-30.273,-53.223,-62.988
1664561357.917,-49.316,-38.574,-56.152,-41.504
1664561357.934,47.852,-44.434,-51.758,-14.648
1664561357.938,-29.297,-38.574,-56.641,-37.109
1664561357.942,-132.324,-39.062,-56.641,-66.895
1664561357.946,-86.914,-38.574,-56.641,-57.129
1664561357.950,31.250,-36.621,-63.965,-24.902
1664561357.954,4.395,-33.203,-62.500,-31.738
1664561357.958,-114.258,-33.203,-61.035,-69.824
1664561357.961,-112.793,-39.062,-61.523,-69.824
1664561357.965,8.789,-42.969,-63.965,-37.109
1664561357.969,27.832,-40.527,-66.895,-27.832
1664561357.973,-90.820,-36.133,-60.547,-57.129
1664561357.977,-132.324,-43.457,-62.988,-71.289
1664561357.979,-22.949,-38.574,-66.895,-41.016
1664561357.983,45.410,-37.109,-69.824,-20.508
1664561357.987,-58.105,-50.781,-65.430,-47.363
1664561357.991,-144.531,-48.828,-58.105,-68.359
1664561357.995,-71.777,-43.457,-49.805,-41.016
1664561357.999,33.203,-43.945,-44.434,-18.555
1664561358.003,-22.461,-33.691,-50.293,-41.016
1664561358.006,-117.676,-29.297,-50.293,-63.965
1664561358.010,-89.844,-38.086,-49.316,-50.781
1664561358.014,16.113,-41.504,-46.875,-23.438
1664561358.018,0.000,-30.273,-44.922,-37.598
1664561358.022,-117.188,-25.879,-45.898,-67.871
1664561358.025,-137.207,-34.668,-47.363,-70.312
1664561358.029,-13.672,-36.133,-50.293,-35.645
1664561358.033,25.879,-32.715,-56.641,-25.391
1664561358.037,-90.820,-32.715,-53.711,-60.059
1664561358.041,-147.461,-38.574,-49.316,-70.312
1664561358.045,-41.504,-36.133,-45.410,-35.645
1664561358.049,37.598,-33.203,-44.434,-18.555
1664561358.052,-59.082,-35.156,-43.945,-47.852
1664561358.056,-142.090,-34.180,-36.621,-61.035
1664561358.060,-76.660,-36.621,-41.504,-40.527
1664561358.064,30.273,-41.504,-51.758,-14.648
1664561358.068,-21.484,-42.480,-46.387,-19.531
1664561358.084,-127.930,-38.086,-36.133,-48.340
1664561358.088,-104.492,-38.574,-39.551,-50.293
1664561358.092,20.020,-35.645,-34.668,-15.625
1664561358.096,20.508,-33.203,-25.391,-17.090
1664561358.100,-98.633,-35.156,-26.367,-54.688
1664561358.104,-122.070,-40.039,-34.668,-67.871
1664561358.108,-7.812,-46.875,-43.945,-39.551
1664561358.111,44.922,-42.969,-40.527,-15.137
1664561358.115,-65.430,-36.621,-41.504,-42.480
1664561358.119,-130.371,-39.062,-40.039,-62.500
1664561358.123,-31.250,-36.621,-31.250,-33.691
1664561358.127,63.965,-35.156,-31.250,-11.719
1664561358.114,-27.832,-32.715,-41.504,-32.715
1664561358.118,-129.883,-29.785,-40.527,-57.617
1664561358.122,-66.406,-38.086,-38.086,-36.621
1664561358.126,55.664,-42.969,-37.598,3.418
1664561358.130,21.973,-29.297,-31.738,-3.906
1664561358.134,-92.285,-24.414,-33.203,-39.551
1664561358.138,-83.496,-33.203,-25.879,-36.133
1664561358.141,44.922,-32.715,-22.461,4.883
1664561358.145,53.711,-22.461,-31.738,7.324
1664561358.149,-75.195,-22.949,-36.133,-42.969
1664561358.153,-109.375,-30.762,-35.156,-53.223
1664561358.157,-0.977,-26.367,-36.133,-17.578
1664561358.160,60.059,-19.531,-35.156,-6.836
1664561358.164,-47.852,-26.855,-32.715,-38.086
1664561358.168,-135.742,-40.527,-33.691,-59.082
1664561358.172,-49.316,-43.945,-28.320,-35.156
1664561358.176,41.992,-35.645,-28.320,-9.277
1664561358.180,-39.551,-30.273,-42.480,-29.297
1664561358.184,-126.465,-31.738,-38.086,-53.223
1664561358.187,-73.730,-35.645,-24.414,-32.715
1664561358.191,44.922,-38.086,-29.785,-5.859
1664561358.195,16.113,-37.109,-31.738,-23.926
1664561358.199,-105.957,-38.086,-34.668,-58.105
1664561358.203,-108.887,-35.156,-45.898,-55.664
1664561358.204,18.555,-26.367,-47.363,-19.531
1664561358.208,37.109,-26.855,-42.480,-13.672
1664561358.212,-89.355,-37.109,-31.738,-47.852
1664561358.216,-135.254,-42.969,-21.484,-61.035
1664561358.220,-28.320,-44.922,-29.297,-32.715
1664561358.224,44.434,-39.551,-36.133,-10.742
1664561358.228,-57.617,-37.109,-31.738,-34.668
1664561358.231,-143.066,-40.527,-31.738,-59.082
1664561358.235,-63.477,-36.133,-37.109,-39.062
1664561358.239,48.828,-27.344,-39.062,-7.324
1664561358.243,-7.812,-26.855,-31.250,-21.973
1664561358.247,-116.699,-36.621,-24.902,-55.664
1664561358.279,-89.355,-36.621,-22.949,-49.805
1664561358.283,29.297,-25.391,-29.785,-14.648
1664561358.287,16.602,-25.879,-30.273,-19.043
1664561358.291,-108.398,-33.203,-22.461,-55.664
1664561358.295,-108.887,-27.344,-22.461,-50.781
1664561358.299,22.461,-21.973,-24.902,-10.254
1664561358.303,40.039,-24.902,-24.902,-7.324
1664561358.306,-75.195,-23.438,-20.508,-41.504
1664561358.310,-125.977,-18.066,-26.855,-61.523
1664561358.314,-30.273,-15.137,-28.809,-33.203
1664561358.318,48.828,-20.020,-29.297,-15.625
1664561358.322,-48.340,-23.438,-30.762,-46.875
1664561358.310,-140.625,-23.438,-27.344,-66.895
1664561358.314,-74.219,-27.832,-34.180,-44.434
1664561358.318,38.086,-39.062,-39.062,-13.672
1664561358.322,-12.207,-41.504,-39.062,-34.180
1664561358.326,-123.047,-40.039,-38.086,-63.477
1664561358.330,-102.539,-40.527,-37.109,-47.363
1664561358.334,23.926,-35.645,-39.062,-17.578
1664561358.337,22.949,-33.691,-41.992,-20.020
1664561358.341,-104.492,-38.574,-38.086,-52.734
1664561358.345,-128.418,-36.133,-33.691,-60.059
1664561358.349,-8.789,-37.109,-27.832,-28.809
1664561358.353,40.527,-32.715,-22.949,-18.066
1664561358.355,-74.707,-34.180,-23.438,-49.316
1664561358.359,-141.602,-31.250,-24.902,-63.965
1664561358.363,-45.410,-25.879,-36.621,-42.480
1664561358.367,43.457,-30.273,-36.133,-18.555
1664561358.371,-50.293,-37.598,-26.855,-34.668
1664561358.375,-145.996,-42.480,-36.621,-63.477
1664561358.379,-80.078,-41.504,-40.039,-55.176
1664561358.382,35.156,-35.156,-33.203,-21.484
1664561358.386,-2.441,-24.414,-26.855,-23.926
1664561358.390,-117.188,-28.809,-29.785,-57.129
1664561358.394,-106.445,-44.922,-39.551,-60.547
1664561358.398,25.391,-38.086,-36.621,-25.879
1664561358.399,33.691,-25.879,-27.832,-21.484
1664561358.403,-83.496,-28.320,-25.879,-51.758
1664561358.407,-116.211,-27.344,-30.762,-56.641
1664561358.411,-3.906,-18.066,-32.227,-22.949
1664561358.415,56.641,-19.531,-34.180,-7.812
1664561358.419,-62.012,-34.180,-39.062,-44.922
1664561358.423,-142.090,-32.715,-35.645,-60.547
1664561358.426,-48.340,-18.066,-30.273,-23.438
1664561358.430,58.105,-20.020,-31.738,7.812
1664561358.434,-21.973,-30.273,-39.062,-26.367
1664561358.438,-128.906,-26.367,-36.133,-69.824
1664561358.442,-78.125,-29.297,-31.250,-53.223
1664561358.445,43.945,-34.668,-36.133,-16.602
1664561358.449,2.441,-32.227,-37.109,-34.668
1664561358.453,-107.910,-22.949,-33.203,-61.523
1664561358.457,-96.680,-22.949,-33.203,-55.664
1664561358.461,18.066,-29.785,-44.434,-26.367
1664561358.465,34.180,-29.785,-48.828,-23.438
1664561358.469,-94.727,-28.320,-38.574,-62.012
1664561358.472,-139.648,-35.156,-25.391,-68.848
1664561358.476,-21.484,-31.250,-23.926,-29.785
1664561358.480,51.270,-20.020,-25.879,-12.207
1664561358.484,-55.176,-18.555,-24.414,-40.039
1664561358.488,-142.578,-24.414,-30.273,-65.918
1664561358.490,-59.082,-32.227,-37.598,-50.781
1664561358.494,52.734,-33.203,-37.598,-15.625
1664561358.498,-18.555,-32.715,-38.574,-31.738
1664561358.502,-127.441,-37.109,-35.156,-56.641
1664561358.506,-91.797,-37.109,-31.738,-41.504
1664561358.510,14.648,-28.320,-45.898,-33.691
1664561358.514,-12.207,-32.715,-45.410,-49.805
1664561358.517,-138.672,-39.062,-34.180,-81.055
1664561358.521,-155.762,-39.062,-40.039,-95.215
1664561358.525,-33.203,-36.133,-42.969,-65.430
1664561358.529,-4.395,-31.738,-34.180,-55.664
1664561358.533,-134.277,-29.785,-33.203,-89.355
1664561358.534,-187.012,-30.273,-31.250,-106.445
1664561358.538,-67.383,-32.715,-29.297,-76.660
1664561358.542,15.137,-30.762,-33.691,-46.875
1664561358.546,-83.984,-39.551,-32.715,-72.266
1664561358.550,-171.387,-44.922,-29.297,-100.098
1664561358.554,-98.633,-36.621,-28.320,-74.707
1664561358.558,25.879,-33.203,-32.227,-29.785
1664561358.561,-24.902,-30.273,-34.668,-36.621
1664561358.565,-141.602,-31.250,-34.668,-84.473
1664561358.569,-117.188,-31.738,-35.156,-78.613
1664561358.573,2.930,-36.133,-38.574,-35.156
1664561358.577,5.371,-40.039,-37.109,-37.598
1664561358.579,-107.422,-34.668,-27.832,-71.777
1664561358.583,-128.906,-32.227,-20.508,-74.219
1664561358.587,-8.789,-35.156,-26.367,-41.016
1664561358.591,44.922,-27.832,-37.109,-26.367
1664561358.595,-66.895,-23.926,-42.480,-57.617
1664561358.599,-129.883,-37.598,-41.504,-71.289
1664561358.603,-28.320,-38.574,-37.598,-30.273
1664561358.606,62.500,-27.344,-24.902,1.465
1664561358.610,-29.785,-29.297,-24.902,-23.926
1664561358.614,-130.859,-34.180,-38.086,-58.105
1664561358.618,-72.266,-35.156,-36.621,-37.598
1664561358.622,40.527,-29.785,-32.715,0.488
1664561358.639,-2.441,-22.949,-32.227,-13.184
1664561358.643,-115.234,-33.203,-31.738,-54.199
1664561358.647,-103.516,-43.457,-32.227,-59.082
1664561358.651,16.602,-42.969,-34.668,-24.902
1664561358.655,21.973,-40.039,-30.762,-26.367
1664561358.659,-100.586,-39.062,-24.902,-59.570
1664561358.663,-129.883,-32.715,-28.809,-67.383
1664561358.666,-17.578,-30.273,-33.691,-37.109
1664561358.670,41.504,-35.156,-29.785,-16.602
1664561358.674,-64.941,-36.621,-30.762,-41.504
1664561358.678,-139.648,-37.598,-35.645,-56.641
1664561358.682,-47.852,-38.574,-32.227,-32.227
1664561358.685,56.641,-34.180,-30.273,-3.418
1664561358.689,-20.996,-32.715,-27.344,-20.996
1664561358.693,-129.883,-32.227,-25.879,-52.734
1664561358.697,-83.984,-32.227,-30.762,-41.504
1664561358.701,34.668,-39.551,-40.039,-10.254
1664561358.705,4.883,-45.898,-39.062,-19.043
1664561358.709,-109.863,-40.039,-32.715,-55.176
1664561358.712,-103.027,-34.180,-29.785,-59.082
1664561358.716,21.484,-37.598,-27.344,-16.113
1664561358.720,35.645,-39.551,-25.391,-2.441
1664561358.724,-88.867,-34.180,-29.785,-42.969
1664561358.728,-125.488,-30.762,-31.738,-64.941
1664561358.729,-7.324,-39.062,-26.367,-33.691
1664561358.733,66.895,-35.156,-24.414,-4.883
1664561358.737,-43.945,-31.738,-30.273,-36.621
1664561358.741,-130.859,-39.551,-38.574,-66.406
1664561358.745,-50.781,-39.551,-37.598,-43.457
1664561358.749,54.688,-32.715,-29.785,-13.672
1664561358.753,-7.812,-23.438,-22.461,-32.227
1664561358.756,-115.234,-29.297,-20.508,-63.477
1664561358.760,-75.195,-33.203,-23.438,-48.828
1664561358.764,47.363,-32.227,-29.297,-12.695
1664561358.768,29.297,-33.203,-36.621,-29.785
1664561358.772,-83.984,-32.715,-28.320,-58.105
1664561358.775,-95.703,-24.414,-19.531,-51.758
1664561358.779,28.320,-18.555,-17.578,-20.020
1664561358.783,59.082,-23.926,-11.719,-6.348
1664561358.787,-72.754,-35.156,-17.090,-43.457
1664561358.791,-122.070,-41.016,-23.438,-57.129
1664561358.795,-18.066,-38.086,-18.066,-22.949
1664561358.799,58.594,-33.691,-13.184,0.488
1664561358.802,-40.039,-22.461,-12.695,-27.344
1664561358.806,-140.625,-24.414,-23.926,-55.664
1664561358.810,-68.359,-34.668,-28.320,-38.574
1664561358.814,49.316,-40.039,-29.297,-12.695
1664561358.818,-8.301,-41.504,-32.227,-25.879
1664561358.834,-121.094,-36.133,-32.227,-55.664
1664561358.838,-78.613,-32.227,-30.762,-41.016
1664561358.842,48.828,-28.809,-29.785,-6.348
1664561358.846,28.320,-30.273,-37.598,-22.949
1664561358.850,-87.891,-23.926,-38.574,-64.941
1664561358.854,-104.980,-20.020,-41.016,-69.336
1664561358.858,12.207,-27.832,-46.875,-26.855
1664561358.861,60.059,-26.855,-42.480,-3.906
1664561358.865,-55.176,-26.855,-35.156,-37.109
1664561358.869,-121.094,-28.809,-35.645,-60.059
1664561358.873,-19.043,-23.438,-39.551,-32.227
1664561358.877,59.570,-26.367,-43.945,-14.160
1664561358.864,-41.504,-30.273,-44.434,-43.945
1664561358.868,-134.277,-31.250,-43.457,-70.801
1664561358.872,-72.266,-37.109,-49.805,-55.664
1664561358.876,44.434,-38.086,-52.734,-22.949
1664561358.880,9.766,-28.809,-46.387,-28.320
1664561358.884,-100.586,-25.879,-47.852,-58.594
1664561358.888,-86.914,-30.273,-48.828,-51.270
1664561358.891,36.133,-34.668,-47.852,-16.113
1664561358.895,36.133,-44.434,-55.176,-22.949
1664561358.899,-90.820,-44.434,-56.152,-58.105
1664561358.903,-120.605,-41.504,-54.199,-59.082
1664561358.907,2.441,-38.086,-52.734,-25.391
1664561358.939,53.223,-26.367,-55.664,-13.672
1664561358.943,-63.477,-21.484,-52.246,-46.387
1664561358.947,-131.348,-24.902,-48.340,-70.312
1664561358.951,-46.875,-31.250,-48.340,-49.805
1664561358.955,54.199,-29.785,-44.922,-22.461
1664561358.959,-20.508,-29.785,-45.898,-47.363
1664561358.963,-131.836,-35.156,-46.387,-74.707
1664561358.966,-90.332,-37.598,-56.152,-61.035
1664561358.970,27.832,-35.156,-63.477,-28.809
1664561358.974,3.906,-27.832,-54.199,-23.438
1664561358.978,-111.816,-25.879,-43.945,-52.734
1664561358.982,-114.258,-33.203,-42.480,-62.500
1664561358.954,2.441,-28.320,-35.156,-29.297
1664561358.958,9.277,-28.809,-35.156,-27.344
1664561358.962,-120.605,-37.598,-46.387,-75.684
1664561358.966,-166.504,-39.062,-48.828,-92.285
1664561358.970,-53.711,-26.367,-43.457,-62.988
1664561358.974,10.742,-15.137,-34.180,-51.270
1664561358.978,-115.723,-24.902,-33.691,-99.121
1664561358.981,-207.031,-33.691,-38.086,-131.348
1664561358.985,-132.324,-30.762,-36.621,-112.305
1664561358.989,-40.527,-26.855,-35.645,-101.074
1664561358.993,-120.605,-32.715,-34.180,-138.184
1664561358.997,-239.258,-35.645,-33.203,-179.199
1664561358.999,-203.613,-29.297,-33.691,-171.875
1664561359.003,-81.055,-30.273,-32.227,-143.555
1664561359.007,-103.516,-30.273,-39.062,-147.949
1664561359.011,-222.168,-24.902,-44.434,-174.316
1664561359.015,-224.121,-25.391,-43.945,-174.316
1664561359.019,-87.891,-25.879,-40.039,-130.371
1664561359.023,-53.711,-27.832,-39.551,-117.676
1664561359.026,-170.898,-37.109,-50.293,-154.785
1664561359.030,-216.309,-38.086,-53.223,-153.320
1664561359.034,-104.492,-38.574,-44.922,-102.051
1664561359.038,-20.508,-39.062,-40.527,-68.359
1664561359.042,-108.398,-34.180,-35.156,-89.355
1664561359.060,-179.688,-34.668,-34.668,-106.934
1664561359.064,-104.980,-36.133,-41.016,-83.008
1664561359.068,13.184,-39.062,-44.922,-40.527
1664561359.072,-36.133,-35.645,-41.504,-49.316
1664561359.076,-137.207,-34.180,-35.156,-77.637
1664561359.080,-97.168,-40.039,-34.668,-58.594
1664561359.084,24.414,-36.621,-25.879,-13.672
1664561359.087,26.855,-31.250,-28.320,-14.160
1664561359.091,-84.961,-31.738,-43.945,-43.945
1664561359.095,-104.492,-31.250,-41.504,-40.527
1664561359.099,20.508,-35.156,-35.156,-5.859
1664561359.103,72.266,-41.992,-31.738,14.648
1664561359.104,-42.969,-39.551,-27.832,-6.348
1664561359.108,-104.004,-36.621,-30.762,-22.949
1664561359.112,-3.906,-47.363,-37.109,0.000
1664561359.116,83.008,-46.875,-43.457,25.879
1664561359.120,0.000,-31.250,-40.039,9.766
1664561359.124,-87.891,-30.762,-35.156,-11.719
1664561359.128,-28.809,-36.133,-40.039,2.930
1664561359.131,92.285,-35.156,-46.387,33.691
1664561359.135,52.246,-37.598,-47.363,22.949
1664561359.139,-67.383,-41.016,-48.828,-8.301
1664561359.143,-55.664,-38.086,-50.781,-10.742
1664561359.147,65.918,-36.621,-42.969,19.531
1664561359.164,67.871,-36.133,-36.621,23.438
1664561359.168,-51.758,-30.762,-37.598,-13.184
1664561359.172,-73.242,-29.785,-37.109,-21.484
1664561359.176,43.457,-33.691,-40.039,9.766
1664561359.180,89.355,-36.621,-38.086,23.438
1664561359.184,-25.391,-33.691,-31.738,3.418
1664561359.188,-99.121,-29.297,-29.297,-16.602
1664561359.191,-14.648,-30.273,-32.715,3.418
1664561359.195,89.355,-28.320,-39.551,41.016
1664561359.199,14.160,-25.391,-35.645,18.066
1664561359.203,-85.449,-21.484,-24.414,-20.020
1664561359.207,-27.344,-26.855,-22.949,-3.906
1664561359.194,90.820,-33.691,-28.320,38.086
1664561359.198,40.527,-32.715,-31.250,16.113
1664561359.202,-83.008,-29.297,-31.250,-24.414
1664561359.206,-75.195,-31.250,-29.297,-20.020
1664561359.210,44.922,-28.320,-26.855,11.230
1664561359.214,58.105,-27.832,-30.762,12.207
1664561359.218,-62.500,-30.273,-33.203,-26.855
1664561359.221,-93.262,-30.762,-29.785,-41.016
1664561359.225,19.531,-34.668,-28.320,-15.625
1664561359.229,78.613,-30.762,-25.879,5.371
1664561359.233,-26.855,-29.785,-23.438,-17.578
1664561359.237,-103.027,-30.273,-16.602,-30.273
1664561359.254,-15.625,-20.020,-21.484,-5.859
1664561359.258,86.426,-20.508,-27.344,17.578
1664561359.262,10.254,-24.902,-21.484,-3.906
1664561359.266,-96.680,-20.020,-17.090,-31.738
1664561359.270,-57.617,-26.855,-18.066,-24.902
1664561359.274,57.617,-32.715,-26.367,3.418
1664561359.278,27.344,-35.645,-30.273,-0.488
1664561359.281,-101.562,-34.180,-32.227,-40.039
1664561359.285,-111.816,-31.250,-38.574,-46.387
1664561359.289,15.137,-34.180,-40.039,-11.230
1664561359.293,46.387,-29.297,-34.180,2.441
1664561359.297,-81.543,-25.879,-27.344,-29.297
1664561359.285,-134.277,-30.762,-29.785,-45.898
1664561359.289,-24.414,-41.504,-42.480,-22.461
1664561359.293,57.129,-42.969,-39.062,0.488
1664561359.297,-40.039,-36.621,-31.250,-24.414
1664561359.301,-128.906,-37.109,-32.227,-47.852
1664561359.305,-52.246,-33.691,-23.438,-18.066
1664561359.309,58.105,-28.809,-15.625,10.742
1664561359.312,-2.930,-35.156,-18.066,-15.625
1664561359.316,-113.770,-40.527,-22.461,-46.387
1664561359.320,-84.961,-40.039,-18.066,-32.227
1664561359.324,34.180,-35.645,-17.578,7.812
1664561359.328,21.484,-35.156,-21.973,1.953
1664561359.344,-99.609,-38.086,-22.949,-48.340
1664561359.348,-109.863,-37.598,-29.297,-52.246
1664561359.352,18.555,-37.109,-34.180,-12.207
1664561359.356,62.988,-37.109,-32.227,-1.953
1664561359.360,-59.082,-40.527,-33.203,-34.668
1664561359.364,-113.281,-33.203,-34.668,-53.711
1664561359.368,-16.113,-35.645,-26.367,-22.461
1664561359.371,54.199,-46.875,-22.949,-4.883
1664561359.375,-34.180,-38.086,-31.738,-40.527
1664561359.379,-126.953,-32.715,-35.645,-62.500
1664561359.383,-56.641,-36.621,-37.109,-39.062
1664561359.387,62.500,-38.574,-45.410,-6.836
1664561359.406,6.348,-37.598,-42.480,-18.555
1664561359.410,-108.887,-31.250,-26.367,-42.480
1664561359.414,-86.914,-24.414,-18.555,-34.668
1664561359.418,36.621,-34.180,-20.020,-6.836
1664561359.422,38.086,-37.598,-24.414,-8.301
1664561359.426,-80.566,-30.762,-22.949,-41.992
1664561359.430,-103.027,-30.273,-21.484,-49.805
1664561359.433,8.301,-34.668,-25.879,-23.438
1664561359.437,55.664,-38.574,-29.297,-18.066
1664561359.441,-56.152,-33.691,-26.855,-39.062
1664561359.445,-127.930,-31.250,-26.367,-52.734
1664561359.449,-39.062,-40.039,-31.250,-33.691
1664561359.434,57.617,-42.480,-35.156,-1.953
1664561359.438,-35.156,-48.828,-40.527,-33.203
1664561359.442,-142.090,-52.246,-40.527,-61.523
1664561359.446,-80.078,-42.480,-36.621,-36.621
1664561359.450,38.086,-40.039,-31.250,-5.371
1664561359.454,-1.953,-35.156,-31.738,-20.508
1664561359.458,-113.281,-31.738,-37.109,-58.105
1664561359.461,-97.656,-31.738,-42.969,-51.758
1664561359.465,24.414,-31.250,-43.457,-12.695
1664561359.469,34.668,-35.645,-39.062,-4.883
1664561359.473,-86.914,-39.062,-33.203,-39.551
1664561359.477,-125.000,-31.738,-38.086,-62.500
1664561359.479,-6.836,-22.461,-41.016,-32.227
1664561359.483,59.082,-21.973,-28.809,-3.906
1664561359.487,-50.781,-21.973,-29.785,-34.668
1664561359.491,-122.070,-13.672,-28.809,-55.176
1664561359.495,-36.133,-16.602,-28.320,-33.203
1664561359.499,62.012,-22.461,-33.203,-13.184
1664561359.503,-13.672,-28.809,-37.598,-31.250
1664561359.506,-117.676,-32.227,-42.480,-56.641
1664561359.510,-75.195,-26.367,-43.457,-43.457
1664561359.514,44.922,-23.438,-35.645,-9.277
1664561359.518,16.113,-22.461,-33.203,-12.207
1664561359.522,-109.863,-25.391,-39.062,-45.898
1664561359.525,-109.375,-29.785,-39.551,-49.316
1664561359.529,15.137,-29.785,-42.480,-17.578
1664561359.533,33.691,-41.504,-40.039,-11.230
1664561359.537,-84.473,-43.457,-32.715,-42.969
1664561359.541,-130.371,-38.086,-36.621,-56.152
1664561359.545,-21.484,-36.133,-31.738,-19.043
1664561359.549,52.246,-36.133,-30.762,-1.953
1664561359.552,-60.547,-42.969,-31.738,-39.062
1664561359.556,-146.973,-43.945,-29.785,-59.570
1664561359.560,-69.336,-42.969,-33.691,-42.969
1664561359.564,34.180,-40.039,-37.109,-17.090
1664561359.568,-31.250,-41.016,-35.645,-23.438
1664561359.584,-141.113,-37.109,-28.809,-52.246
1664561359.588,-106.934,-44.922,-33.203,-49.805
1664561359.592,18.555,-51.270,-32.715,-13.672
1664561359.596,8.301,-41.016,-27.344,-7.812
1664561359.600,-110.352,-38.574,-31.250,-35.645
1664561359.604,-123.535,-34.180,-33.691,-43.457
1664561359.608,-2.441,-30.273,-32.227,-12.207
1664561359.611,34.668,-33.691,-30.273,0.977
1664561359.615,-85.449,-36.133,-32.227,-40.039
1664561359.619,-138.184,-38.086,-30.762,-61.035
1664561359.623,-27.832,-42.969,-28.320,-27.344
1664561359.627,50.293,-40.527,-32.227,-8.301
1664561359.616,-50.781,-40.527,-40.527,-41.992
1664561359.620,-138.184,-42.480,-43.457,-71.777
1664561359.624,-71.777,-37.109,-34.668,-49.316
1664561359.628,41.992,-36.133,-32.715,-11.230
1664561359.632,-9.277,-32.715,-32.227,-26.855
1664561359.636,-127.930,-28.320,-37.598,-61.035
1664561359.640,-103.027,-31.738,-38.086,-45.898
1664561359.643,26.855,-36.133,-27.344,-4.883
1664561359.647,22.461,-37.109,-30.273,-11.230
1664561359.651,-104.004,-38.086,-36.621,-54.199
1664561359.655,-126.953,-43.945,-41.992,-62.988
1664561359.659,-3.418,-38.086,-42.480,-18.066
1664561359.660,44.434,-27.344,-31.738,-1.465
1664561359.664,-74.707,-22.461,-26.855,-35.156
1664561359.668,-131.836,-23.926,-31.738,-51.758
1664561359.672,-35.645,-27.344,-32.227,-32.227
1664561359.676,54.688,-39.062,-31.738,-5.371
1664561359.680,-22.949,-40.039,-25.391,-31.250
1664561359.684,-126.953,-29.297,-20.996,-72.266
1664561359.687,-73.730,-29.297,-27.344,-56.641
1664561359.691,47.852,-32.715,-36.133,-22.949
1664561359.695,13.184,-29.297,-31.250,-25.879
1664561359.699,-104.004,-26.855,-24.902,-51.758
1664561359.703,-96.680,-22.461,-23.926,-51.758
1664561359.719,25.879,-25.879,-24.902,-20.996
1664561359.723,40.039,-25.879,-23.438,-12.207
1664561359.727,-78.613,-26.367,-18.066,-40.527
1664561359.731,-112.793,-31.250,-16.602,-47.852
1664561359.735,0.977,-24.414,-17.090,-7.324
1664561359.739,62.012,-21.973,-17.578,11.230
1664561359.743,-47.363,-25.391,-17.090,-20.996
1664561359.746,-121.094,-19.043,-18.066,-41.992
1664561359.750,-34.668,-16.602,-21.973,-22.949
1664561359.754,63.477,-26.367,-24.902,2.441
1664561359.758,-14.160,-32.715,-26.367,-22.949
1664561359.762,-117.188,-32.227,-26.855,-50.293
1664561359.749,-63.477,-26.855,-25.879,-33.203
1664561359.753,55.176,-25.879,-23.926,-3.418
1664561359.757,12.695,-26.367,-21.973,-10.254
1664561359.761,-109.863,-28.809,-24.902,-50.293
1664561359.765,-108.398,-33.203,-27.344,-59.082
1664561359.769,13.672,-32.715,-24.414,-26.367
1664561359.773,35.156,-28.809,-26.855,-23.926
1664561359.776,-83.496,-23.438,-28.320,-54.199
1664561359.780,-127.930,-29.785,-23.926,-62.012
1664561359.784,-18.066,-28.320,-24.902,-36.133
1664561359.788,56.641,-22.949,-29.785,-18.066
1664561359.792,-43.945,-25.391,-31.738,-48.340
1664561359.809,-119.629,-29.297,-34.180,-72.266
1664561359.813,-38.086,-25.879,-31.738,-42.480
1664561359.817,64.941,-15.625,-27.344,-8.301
1664561359.821,-0.488,-15.625,-27.344,-31.738
1664561359.825,-112.793,-24.414,-24.414,-62.500
1664561359.829,-82.520,-32.227,-24.414,-51.758
1664561359.833,37.598,-32.227,-33.691,-20.996
1664561359.836,20.020,-30.273,-35.156,-29.297
1664561359.840,-101.562,-29.297,-30.273,-57.617
1664561359.844,-116.699,-26.367,-29.785,-58.105
1664561359.848,3.906,-21.484,-39.062,-27.344
1664561359.852,45.410,-20.508,-37.109,-10.254
1664561359.854,-70.312,-17.090,-27.344,-38.086
1664561359.858,-127.930,-24.414,-34.180,-57.617
1664561359.862,-25.391,-34.180,-41.016,-35.645
1664561359.866,53.223,-28.320,-38.086,-18.555
1664561359.870,-47.363,-35.156,-40.039,-42.480
1664561359.874,-135.254,-38.086,-33.203,-63.965
1664561359.878,-54.688,-22.949,-25.391,-43.457
1664561359.881,58.105,-21.484,-33.691,-13.672
1664561359.885,-3.906,-27.832,-41.016,-23.926
1664561359.889,-119.141,-27.832,-44.922,-56.152
1664561359.893,-90.820,-30.273,-48.828,-54.688
1664561359.897,37.598,-33.691,-43.457,-17.090
1664561359.899,29.297,-24.902,-37.109,-11.230
1664561359.903,-93.750,-26.855,-36.621,-42.480
1664561359.907,-110.352,-28.809,-29.297,-47.363
1664561359.911,5.859,-18.066,-29.297,-14.648
1664561359.915,47.852,-21.973,-35.156,-7.324
1664561359.919,-64.941,-20.020,-35.645,-40.039
1664561359.923,-132.324,-19.043,-40.527,-62.988
1664561359.926,-37.109,-28.809,-45.410,-36.133
1664561359.930,55.176,-20.996,-41.016,3.418
1664561359.934,-36.133,-16.602,-37.598,-20.020
1664561359.938,-130.859,-22.461,-40.039,-57.129
1664561359.942,-67.871,-27.832,-37.109,-47.852
1664561359.959,45.898,-32.227,-35.645,-8.789
1664561359.963,6.348,-33.203,-32.715,-18.555
1664561359.967,-113.770,-30.762,-30.273,-52.246
1664561359.971,-102.539,-25.879,-26.855,-36.621
1664561359.975,25.879,-28.320,-22.461,-0.488
1664561359.979,35.645,-21.484,-21.973,-4.395
1664561359.983,-90.332,-22.949,-28.320,-42.969
1664561359.986,-119.629,-40.527,-37.109,-50.293
1664561359.990,2.441,-43.457,-37.109,-19.043
1664561359.994,56.152,-40.527,-33.691,-12.695
1664561359.998,-56.152,-29.297,-32.227,-43.945
1664561360.002,-130.859,-23.926,-34.668,-58.105
1664561359.989,-47.852,-31.250,-28.809,-32.227
1664561359.993,52.246,-29.785,-25.391,-6.348
1664561359.997,-16.602,-30.273,-20.996,-25.391
1664561360.001,-119.629,-31.738,-20.996,-44.434
1664561360.005,-74.219,-28.809,-30.762,-32.227
1664561360.009,39.062,-33.203,-39.062,-5.859
1664561360.013,5.371,-32.715,-39.551,-11.230
1664561360.016,-104.492,-29.785,-35.156,-47.363
1664561360.020,-99.121,-31.738,-31.738,-48.340
1664561360.024,22.461,-30.273,-29.785,-12.695
1664561360.028,46.387,-29.297,-23.438,-7.324
1664561360.032,-76.660,-38.574,-22.461,-40.039
1664561360.034,-121.094,-39.062,-21.973,-59.082
1664561360.038,-7.324,-32.227,-26.367,-35.645
1664561360.042,57.617,-32.227,-34.180,-13.184
1664561360.046,-51.270,-38.086,-28.809,-42.480
1664561360.050,-132.324,-35.645,-25.391,-68.848
1664561360.054,-46.875,-29.297,-29.297,-42.480
1664561360.058,57.129,-33.203,-35.645,-4.883
1664561360.061,-13.672,-33.203,-40.039,-19.531
1664561360.065,-118.164,-30.762,-28.809,-56.152
1664561360.069,-80.078,-32.715,-21.484,-47.363
1664561360.073,37.109,-37.598,-31.738,-15.137
1664561360.077,14.648,-41.016,-37.598,-16.602
1664561360.079,-102.051,-35.645,-30.273,-44.922
1664561360.083,-107.422,-34.180,-22.461,-47.852
1664561360.087,5.859,-37.109,-27.832,-17.090
1664561360.091,37.109,-37.598,-35.156,-7.812
1664561360.095,-74.219,-42.969,-37.598,-38.574
1664561360.099,-126.465,-38.086,-40.039,-55.176
1664561360.103,-21.973,-34.180,-40.039,-23.926
1664561360.106,59.570,-38.086,-40.039,-6.836
1664561360.110,-38.086,-34.668,-33.203,-33.203
1664561360.114,-122.070,-32.227,-24.902,-49.805
1664561360.118,-60.547,-36.621,-32.715,-42.480
1664561360.122,42.969,-35.156,-37.109,-23.438
1664561360.139,-4.395,-32.227,-33.691,-35.645
1664561360.143,-118.652,-38.574,-36.621,-64.941
1664561360.147,-94.238,-42.480,-42.969,-63.965
1664561360.151,32.715,-38.086,-41.016,-26.855
1664561360.155,27.344,-35.156,-38.086,-19.531
1664561360.159,-103.027,-37.109,-43.945,-55.664
1664561360.163,-125.977,-32.227,-39.551,-58.105
1664561360.166,-9.766,-27.344,-41.016,-34.668
1664561360.170,34.180,-24.414,-43.945,-33.203
1664561360.174,-77.148,-20.508,-40.039,-56.641
1664561360.178,-147.949,-28.809,-46.875,-72.266
1664561360.182,-51.270,-30.273,-52.246,-48.340
1664561360.184,48.828,-23.438,-48.828,-15.625
1664561360.188,-41.504,-21.973,-51.270,-38.086
1664561360.192,-136.719,-22.949,-45.410,-57.617
1664561360.196,-77.148,-32.715,-39.062,-41.504
1664561360.200,28.809,-32.715,-41.992,-21.484
1664561360.204,-17.578,-33.691,-43.945,-29.297
1664561360.208,-125.000,-37.109,-39.551,-60.059
1664561360.211,-100.098,-27.832,-34.180,-56.641
1664561360.215,32.227,-23.926,-33.203,-13.672
1664561360.219,47.852,-22.461,-29.785,0.977
1664561360.223,-64.941,-22.949,-32.715,-33.203
1664561360.227,-106.445,-29.297,-29.785,-46.875
1664561360.229,0.488,-33.203,-20.996,-18.555
1664561360.233,44.434,-36.133,-24.902,-2.930
1664561360.237,-76.660,-32.227,-32.227,-37.598
1664561360.241,-137.695,-24.414,-31.738,-62.500
1664561360.245,-50.293,-35.156,-38.574,-38.086
1664561360.249,41.016,-37.109,-40.527,-6.348
1664561360.253,-32.715,-26.855,-34.668,-25.879
1664561360.256,-128.906,-32.715,-35.156,-59.082
1664561360.260,-69.336,-37.598,-35.156,-36.133
1664561360.264,46.387,-39.062,-35.156,3.418
1664561360.268,11.719,-33.203,-34.668,-12.207
1664561360.272,-104.004,-32.227,-29.297,-44.922
1664561360.275,-103.516,-39.062,-32.715,-41.016
1664561360.279,18.066,-38.574,-42.969,-11.230
1664561360.283,43.457,-31.250,-31.738,-8.301
1664561360.287,-82.031,-29.785,-25.879,-37.109
1664561360.291,-129.883,-28.809,-34.668,-41.992
1664561360.295,-15.625,-29.297,-37.109,-14.160
1664561360.299,57.129,-31.250,-36.133,0.977
1664561360.302,-39.062,-29.785,-32.227,-31.738
1664561360.306,-119.141,-31.738,-29.785,-46.387
1664561360.310,-45.410,-33.691,-33.203,-18.555
1664561360.314,64.941,-23.926,-25.879,4.395
1664561360.318,-0.488,-13.672,-24.414,-10.742
1664561360.319,-112.793,-16.113,-32.715,-42.480
1664561360.323,-79.102,-28.809,-30.273,-35.156
1664561360.327,42.480,-30.762,-30.762,-2.441
1664561360.331,21.973,-26.367,-29.297,-18.066
1664561360.335,-101.074,-29.785,-34.180,-60.547
1664561360.339,-102.539,-28.320,-30.762,-52.246
1664561360.343,25.391,-29.785,-18.555,-10.254
1664561360.346,47.363,-34.180,-26.855,0.488
1664561360.350,-78.613,-38.574,-36.621,-30.762
1664561360.354,-129.883,-33.203,-34.668,-45.410
1664561360.358,-20.996,-22.461,-32.715,-19.531
1664561360.362,55.176,-23.926,-29.785,-2.441
1664561360.379,-46.875,-29.785,-23.926,-34.180
1664561360.383,-132.324,-32.715,-18.555,-61.523
1664561360.387,-57.617,-23.926,-14.648,-36.133
1664561360.391,54.688,-21.484,-14.160,-7.324
1664561360.395,-11.719,-29.297,-18.555,-25.391
1664561360.399,-119.141,-21.973,-23.438,-53.223
1664561360.403,-83.496,-24.414,-20.508,-47.363
1664561360.406,31.250,-30.273,-24.414,-12.695
1664561360.410,20.020,-25.879,-31.250,-17.578
1664561360.414,-97.656,-29.785,-23.438,-55.176
1664561360.418,-118.652,-27.832,-20.508,-53.711
1664561360.422,-5.859,-27.832,-26.367,-21.484
1664561360.424,38.086,-24.414,-24.414,-12.695
1664561360.428,-75.684,-27.832,-20.996,-46.387
1664561360.432,-143.555,-39.551,-26.855,-63.965
1664561360.436,-40.039,-39.551,-34.180,-38.574
1664561360.440,51.270,-35.645,-36.133,-13.672
1664561360.444,-44.434,-31.250,-38.086,-33.203
1664561360.448,-136.719,-30.762,-40.039,-58.105
1664561360.451,-70.312,-28.320,-38.086,-42.969
1664561360.455,45.898,-22.949,-35.156,-13.184
1664561360.459,-6.348,-26.855,-39.551,-28.320
1664561360.463,-120.117,-33.203,-37.598,-59.570
1664561360.467,-100.098,-33.691,-38.086,-57.129
1664561360.454,24.902,-29.785,-48.828,-30.762
1664561360.458,31.738,-25.391,-53.711,-25.879
1664561360.462,-97.168,-30.273,-47.852,-62.500
1664561360.466,-131.836,-41.992,-33.691,-71.289
1664561360.470,-14.160,-39.062,-30.762,-32.715
1664561360.474,43.945,-30.762,-35.156,-9.277
1664561360.478,-70.312,-32.227,-35.156,-38.574
1664561360.481,-136.719,-32.227,-22.461,-61.035
1664561360.485,-39.551,-34.668,-22.949,-38.086
1664561360.489,51.270,-38.574,-37.598,-13.672
1664561360.493,-35.156,-38.086,-36.621,-24.414
1664561360.497,-136.230,-40.039,-30.273,-53.711
1664561360.499,-81.543,-38.086,-28.809,-45.898
1664561360.503,37.598,-37.109,-24.414,-7.324
1664561360.507,6.836,-37.598,-23.438,-17.578
1664561360.511,-108.398,-33.203,-29.297,-54.199
1664561360.515,-102.051,-28.320,-27.832,-51.758
1664561360.519,19.531,-33.691,-25.391,-12.695
1664561360.523,35.645,-29.785,-21.973,-4.395
1664561360.526,-80.078,-22.461,-17.578,-39.551
1664561360.530,-115.723,-21.973,-18.066,-53.223
1664561360.534,-8.301,-23.438,-17.090,-19.531
1664561360.538,51.758,-28.809,-20.996,-2.441
1664561360.542,-57.617,-32.715,-27.832,-35.645
1664561360.559,-136.230,-35.156,-28.809,-61.523
1664561360.563,-47.852,-38.086,-33.691,-42.969
1664561360.567,62.988,-32.715,-33.691,-3.418
1664561360.571,-8.301,-30.273,-28.320,-14.648
1664561360.575,-118.164,-35.156,-26.855,-57.617
1664561360.579,-77.637,-24.902,-25.879,-49.805
1664561360.583,41.016,-26.367,-21.973,-12.207
1664561360.586,12.207,-42.480,-19.531,-22.461
1664561360.590,-109.375,-37.598,-24.414,-50.293
1664561360.594,-109.863,-26.367,-30.762,-47.852
1664561360.598,6.348,-30.762,-39.062,-22.461
1664561360.602,32.227,-26.855,-41.016,-20.020
1664561360.604,-83.008,-26.855,-34.180,-54.199
1664561360.608,-127.441,-40.039,-30.762,-66.895
1664561360.612,-27.832,-44.922,-20.508,-37.109
1664561360.616,45.898,-32.715,-12.207,-15.625
1664561360.620,-45.410,-22.949,-13.184,-36.621
1664561360.624,-131.348,-24.902,-18.555,-62.988
1664561360.628,-62.988,-30.273,-20.020,-46.387
1664561360.631,42.480,-33.203,-11.230,-18.555
1664561360.635,-16.602,-30.762,-5.859,-32.715
1664561360.639,-127.441,-31.738,-16.602,-63.965
1664561360.643,-93.262,-30.762,-26.855,-63.965
1664561360.647,29.785,-37.109,-25.391,-32.227
1664561360.649,18.555,-39.062,-24.902,-34.180
1664561360.653,-101.074,-33.691,-18.066,-63.965
1664561360.657,-117.188,-35.156,-14.648,-69.336
1664561360.661,7.324,-34.668,-21.973,-35.156
1664561360.665,45.898,-23.926,-29.785,-12.207
1664561360.669,-64.941,-18.555,-29.785,-34.180
1664561360.673,-118.652,-24.414,-25.391,-59.570
1664561360.676,-34.668,-38.086,-24.902,-40.527
1664561360.680,39.062,-50.293,-30.273,-12.207
1664561360.684,-48.828,-46.387,-25.879,-41.016
1664561360.688,-143.066,-40.039,-22.949,-72.754
1664561360.692,-85.938,-39.551,-33.203,-61.523
1664561360.694,39.551,-44.434,-37.109,-36.133
1664561360.698,-8.301,-40.527,-27.832,-48.340
1664561360.702,-122.559,-34.668,-16.113,-68.848
1664561360.706,-99.121,-40.527,-18.555,-64.453
1664561360.710,21.973,-47.852,-27.344,-35.156
1664561360.714,20.020,-46.875,-28.320,-32.227
1664561360.718,-104.492,-40.039,-24.902,-62.500
1664561360.721,-123.535,-35.645,-20.508,-67.871
1664561360.725,-1.465,-32.227,-23.438,-27.832
1664561360.729,49.805,-31.250,-23.926,-11.719
1664561360.733,-63.965,-33.691,-13.184,-44.922
1664561360.737,-138.672,-41.016,-13.672,-69.336
1664561360.739,-41.992,-38.086,-20.508,-42.480
1664561360.743,57.617,-35.156,-20.020,-15.137
1664561360.747,-28.809,-35.645,-23.438,-38.574
1664561360.751,-133.301,-30.273,-31.250,-64.941
1664561360.755,-83.008,-34.668,-37.109,-56.641
1664561360.759,41.504,-35.156,-34.668,-23.438
1664561360.763,8.301,-35.645,-33.203,-37.109
1664561360.766,-112.793,-35.156,-36.621,-62.988
1664561360.770,-108.398,-33.203,-36.621,-52.734
1664561360.774,10.742,-28.809,-43.457,-23.926
1664561360.778,25.391,-27.344,-56.641,-18.066
1664561360.782,-90.820,-35.156,-57.129,-51.758
1664561360.784,-126.953,-34.180,-47.852,-70.801
1664561360.788,-16.113,-27.832,-45.898,-40.527
1664561360.792,45.410,-26.367,-44.434,-12.695
1664561360.796,-53.711,-25.879,-44.434,-39.062
1664561360.800,-127.441,-29.785,-43.945,-62.988
1664561360.804,-41.504,-30.762,-37.598,-39.551
1664561360.808,53.711,-26.367,-41.016,-9.277
1664561360.811,-25.391,-34.668,-38.574,-28.809
1664561360.815,-129.883,-34.180,-41.016,-73.730
1664561360.819,-85.938,-28.809,-58.594,-66.895
1664561360.823,35.645,-35.156,-64.941,-28.809
1664561360.827,4.395,-40.039,-57.129,-31.738
1664561360.829,-110.840,-35.156,-48.828,-60.547
1664561360.833,-108.887,-24.414,-47.363,-55.664
1664561360.837,8.301,-31.738,-54.199,-25.391
1664561360.841,28.320,-41.016,-57.129,-20.996
1664561360.845,-99.121,-43.457,-57.617,-57.129
1664561360.849,-150.391,-46.387,-61.035,-75.684
1664561360.853,-33.691,-40.039,-63.965,-39.551
1664561360.856,44.922,-36.133,-62.012,-9.277
1664561360.860,-57.129,-36.133,-57.617,-38.086
1664561360.864,-140.625,-40.039,-51.758,-65.918
1664561360.868,-60.059,-42.969,-50.293,-45.898
1664561360.872,47.363,-46.387,-50.293,-20.020
1664561360.874,-29.297,-43.945,-47.852,-40.039
1664561360.878,-141.113,-34.668,-42.969,-67.871
1664561360.882,-100.098,-28.809,-42.969,-62.012
1664561360.886,24.414,-28.320,-44.922,-27.344
1664561360.890,8.301,-30.273,-43.457,-27.832
1664561360.894,-116.211,-39.551,-39.551,-65.918
1664561360.898,-131.836,-41.992,-43.945,-65.430
1664561360.901,-9.277,-41.992,-51.270,-30.273
1664561360.905,29.785,-48.828,-42.480,-25.879
1664561360.909,-94.238,-46.387,-35.645,-52.734
1664561360.913,-154.297,-43.457,-37.598,-63.477
1664561360.917,-44.922,-53.223,-40.527,-34.180
1664561360.934,37.598,-55.176,-43.945,-8.301
1664561360.938,-66.895,-45.898,-44.922,-48.340
1664561360.942,-147.461,-42.480,-44.922,-79.102
1664561360.946,-62.500,-40.039,-42.480,-45.898
1664561360.950,59.570,-29.785,-47.363,-14.648
1664561360.954,13.672,-23.438,-51.270,-29.785
1664561360.958,-116.211,-30.762,-48.340,-63.477
1664561360.961,-113.281,-41.504,-56.152,-65.430
1664561360.965,11.230,-39.062,-53.223,-20.996
1664561360.969,5.371,-40.039,-53.711,-17.578
1664561360.973,-117.676,-47.363,-59.570,-59.082
1664561360.977,-133.789,-45.898,-53.223,-65.918
1664561360.980,-8.789,-33.203,-52.246,-34.668
1664561360.984,46.875,-27.344,-47.363,-16.113
1664561360.988,-70.801,-35.645,-40.039,-47.852
1664561360.992,-138.672,-37.109,-41.992,-71.777
1664561360.996,-45.898,-36.133,-46.875,-42.969
1664561361.000,48.828,-39.551,-43.457,-7.812
1664561361.004,-29.785,-35.645,-40.039,-28.809
1664561361.007,-130.859,-36.133,-43.457,-54.688
1664561361.011,-75.195,-36.621,-39.062,-27.832
1664561361.015,43.457,-35.156,-36.621,1.953
1664561361.019,1.465,-37.109,-43.945,-18.066
1664561361.023,-109.863,-32.227,-44.434,-47.852
1664561361.039,-97.656,-34.180,-39.062,-43.945
1664561361.043,17.578,-39.062,-42.969,-12.207
1664561361.047,30.273,-44.434,-41.504,-18.066
1664561361.051,-89.355,-44.922,-39.551,-54.199
1664561361.055,-127.441,-36.133,-40.039,-58.594
1664561361.059,-9.766,-33.691,-36.621,-24.902
1664561361.063,54.688,-34.180,-43.945,-12.695
1664561361.066,-50.781,-29.785,-46.875,-36.621
1664561361.070,-121.582,-35.645,-41.016,-52.246
1664561361.074,-33.203,-41.992,-47.852,-34.180
1664561361.078,63.477,-37.598,-52.246,-7.324
1664561361.082,-21.484,-41.504,-43.945,-18.555
1664561361.069,-123.047,-41.992,-34.180,-43.945
1664561361.073,-70.312,-33.203,-34.180,-29.785
1664561361.077,43.945,-32.227,-35.645,-0.977
1664561361.081,7.812,-36.621,-32.227,-5.859
1664561361.085,-110.352,-35.156,-27.832,-35.156
1664561361.089,-109.863,-37.109,-33.691,-48.340
1664561361.093,9.766,-33.203,-38.086,-8.789
1664561361.096,37.109,-27.832,-32.227,5.371
1664561361.100,-84.961,-35.645,-31.250,-37.109
1664561361.104,-130.371,-42.480,-34.180,-56.152
1664561361.108,-21.484,-43.945,-33.203,-25.391
1664561361.112,52.734,-39.062,-38.086,-1.953
1664561361.129,-45.410,-40.527,-43.945,-38.086
1664561361.133,-135.254,-40.527,-43.945,-68.848
1664561361.137,-63.965,-39.551,-41.504,-43.945
1664561361.141,37.109,-42.480,-38.574,-17.578
1664561361.145,-29.785,-39.062,-33.691,-30.273
1664561361.149,-142.578,-39.551,-37.109,-58.105
1664561361.153,-101.074,-34.180,-39.062,-43.945
1664561361.156,33.203,-27.832,-29.297,-1.465
1664561361.160,18.555,-26.855,-27.832,-11.230
1664561361.164,-102.539,-29.297,-37.109,-51.270
1664561361.168,-122.559,-40.527,-44.434,-59.570
1664561361.172,0.488,-42.480,-43.945,-31.250
1664561361.160,41.016,-32.227,-39.551,-19.043
1664561361.164,-81.055,-24.902,-39.062,-50.293
1664561361.168,-142.090,-31.738,-44.922,-76.660
1664561361.172,-37.598,-33.691,-47.852,-48.828
1664561361.176,41.016,-39.551,-46.875,-20.996
1664561361.180,-55.664,-43.457,-53.711,-40.039
1664561361.184,-136.719,-38.574,-56.152,-53.711
1664561361.187,-66.895,-35.645,-56.152,-35.156
1664561361.191,43.457,-32.715,-46.387,0.000
1664561361.195,-16.113,-33.203,-38.574,-21.484
1664561361.199,-129.395,-33.203,-37.598,-54.688
1664561361.203,-101.074,-35.156,-37.598,-42.969
1664561361.220,19.531,-31.738,-43.945,-18.066
1664561361.224,20.020,-21.484,-45.410,-22.949
1664561361.228,-105.957,-32.227,-48.828,-60.059
1664561361.232,-131.836,-41.016,-48.340,-71.777
1664561361.236,-6.348,-32.227,-39.062,-41.504
1664561361.240,48.828,-23.926,-33.691,-18.066
1664561361.244,-65.430,-36.133,-37.598,-44.922
1664561361.247,-134.766,-36.621,-43.945,-70.312
1664561361.251,-36.621,-23.926,-33.203,-43.457
1664561361.255,54.688,-32.227,-37.109,-18.066
1664561361.259,-32.227,-37.598,-47.363,-42.480
1664561361.263,-133.301,-35.156,-39.062,-67.871
1664561361.264,-70.312,-30.273,-36.133,-52.246
1664561361.268,52.734,-24.902,-32.715,-12.207
1664561361.272,3.906,-23.438,-34.180,-19.531
1664561361.276,-111.816,-22.949,-36.621,-58.594
1664561361.280,-90.820,-26.367,-31.738,-48.340
1664561361.284,36.133,-25.879,-29.297,-6.348
1664561361.288,48.340,-25.391,-28.809,-11.230
1664561361.291,-78.613,-28.809,-27.832,-53.711
1664561361.295,-121.582,-31.250,-26.855,-63.965
1664561361.299,-10.254,-30.762,-28.320,-28.809
1664561361.303,47.363,-26.855,-38.086,-12.695
1664561361.307,-60.547,-29.785,-49.316,-46.875
1664561361.310,-135.254,-34.668,-47.363,-73.242
1664561361.314,-49.805,-32.715,-43.945,-50.781
1664561361.318,59.082,-28.320,-37.109,-18.555
1664561361.322,-13.672,-24.414,-28.809,-42.969
1664561361.326,-127.930,-34.180,-30.273,-70.312
1664561361.330,-79.102,-38.086,-33.203,-54.199
1664561361.334,37.109,-37.109,-38.086,-20.508
1664561361.337,6.836,-35.645,-43.457,-24.902
1664561361.341,-113.770,-37.109,-39.551,-60.059
1664561361.345,-117.676,-40.527,-37.598,-53.223
1664561361.349,8.789,-35.156,-45.898,-14.648
1664561361.353,32.715,-30.762,-40.527,-14.160
1664561361.355,-78.125,-30.762,-30.273,-39.062
1664561361.359,-117.676,-28.809,-32.227,-46.387
1664561361.363,-5.859,-25.879,-29.785,-22.949
1664561361.367,62.012,-29.785,-29.785,-8.789
1664561361.371,-48.340,-25.879,-31.250,-31.738
1664561361.375,-123.535,-19.043,-25.391,-36.621
1664561361.379,-44.434,-28.809,-25.879,-11.719
1664561361.382,57.129,-32.715,-30.273,12.695
1664561361.386,-3.418,-21.484,-31.250,-7.812
1664561361.390,-111.328,-17.090,-27.344,-41.016
1664561361.394,-80.566,-21.973,-25.879,-42.480
1664561361.398,39.551,-20.508,-27.832,-14.648
1664561361.399,26.367,-15.625,-19.531,-11.230
1664561361.403,-88.379,-19.531,-24.902,-38.574
1664561361.407,-99.609,-27.344,-32.715,-51.270
1664561361.411,25.391,-22.949,-29.297,-15.137
1664561361.415,55.176,-17.578,-31.250,0.488
1664561361.419,-60.547,-13.184,-29.297,-37.109
1664561361.423,-89.355,-6.348,-27.832,-44.922
1664561361.426,28.809,-13.184,-28.809,-2.441
1664561361.430,77.637,-23.926,-27.344,13.672
1664561361.434,-52.246,-30.762,-20.996,-38.086
1664561361.438,-140.137,-23.438,-17.090,-69.336
1664561361.442,-72.266,-22.461,-24.902,-46.875
1664561361.444,36.621,-20.996,-29.297,-19.531
1664561361.448,-20.508,-20.020,-24.414,-41.504
1664561361.452,-126.953,-27.832,-20.020,-69.336
1664561361.456,-100.586,-30.762,-21.484,-55.664
1664561361.460,18.066,-33.203,-32.227,-22.461
1664561361.464,14.160,-34.180,-37.598,-24.902
1664561361.468,-107.422,-38.574,-34.668,-51.758
1664561361.471,-125.488,-39.062,-28.809,-48.828
1664561361.475,-7.812,-32.715,-27.344,-14.648
1664561361.479,32.227,-39.062,-34.668,-12.207
1664561361.483,-82.520,-41.016,-26.367,-47.363
1664561361.487,-138.184,-34.180,-17.090,-54.688
1664561361.491,-36.621,-34.180,-19.043,-26.367
1664561361.495,50.781,-36.133,-21.484,-14.648
1664561361.499,-38.086,-34.668,-26.367,-37.598
1664561361.503,-127.930,-24.414,-27.832,-54.688
1664561361.507,-68.848,-20.020,-24.414,-39.062
1664561361.511,47.363,-28.320,-25.391,-5.859
1664561361.515,3.418,-28.320,-25.391,-16.113
1664561361.518,-112.793,-32.227,-27.832,-44.434
1664561361.522,-102.051,-34.668,-30.762,-38.086
1664561361.526,20.020,-29.785,-29.785,-4.883
1664561361.530,26.855,-40.527,-34.668,-8.789
1664561361.534,-102.051,-41.992,-41.504,-48.828
1664561361.534,-133.301,-36.621,-34.668,-54.688
1664561361.538,-7.812,-32.227,-24.902,-18.555
1664561361.542,48.828,-28.320,-23.438,0.000
1664561361.546,-66.895,-31.738,-31.738,-34.180
1664561361.550,-132.324,-25.879,-41.016,-52.734
1664561361.554,-41.992,-39.062,-41.992,-26.367
1664561361.558,53.223,-44.922,-36.133,-2.930
1664561361.561,-16.113,-32.715,-30.762,-21.484
1664561361.565,-112.793,-31.738,-25.391,-47.852
1664561361.569,-64.941,-25.879,-21.484,-38.086
1664561361.573,46.387,-22.461,-20.020,-5.859
1664561361.577,1.953,-20.996,-20.996,-14.648
1664561361.594,-118.164,-33.203,-25.391,-58.105
1664561361.598,-104.004,-34.180,-23.438,-57.129
1664561361.602,16.602,-29.297,-20.508,-14.160
1664561361.606,29.297,-39.551,-28.320,-10.254
1664561361.610,-86.426,-41.504,-32.715,-44.922
1664561361.614,-128.418,-29.297,-28.809,-62.012
1664561361.618,-23.926,-28.320,-28.320,-36.133
1664561361.621,42.969,-38.086,-34.180,-10.254
1664561361.625,-60.547,-38.086,-38.574,-42.969
1664561361.629,-140.625,-30.273,-34.668,-66.895
1664561361.633,-58.105,-28.809,-31.738,-36.621
1664561361.637,46.387,-34.668,-31.250,-5.859
1664561361.624,-17.090,-30.273,-23.438,-29.785
1664561361.628,-116.699,-25.879,-26.855,-57.129
1664561361.632,-78.125,-29.785,-36.621,-37.109
1664561361.636,39.062,-26.367,-38.574,-6.348
1664561361.640,23.926,-22.949,-40.527,-12.695
1664561361.644,-91.797,-25.879,-34.668,-47.852
1664561361.648,-109.375,-33.203,-31.738,-53.711
1664561361.651,6.836,-35.156,-31.738,-20.508
1664561361.655,42.969,-35.156,-28.320,-18.555
1664561361.659,-65.430,-32.715,-20.508,-39.551
1664561361.663,-124.512,-29.297,-23.926,-47.852
1664561361.667,-32.227,-36.133,-30.273,-31.738
1664561361.684,55.664,-30.273,-26.855,-8.789
1664561361.688,-34.180,-21.973,-26.855,-40.039
1664561361.692,-124.023,-25.879,-29.785,-66.406
1664561361.696,-58.105,-33.691,-25.391,-41.992
1664561361.700,49.316,-43.945,-27.344,-11.230
1664561361.704,-4.883,-39.551,-17.578,-20.996
1664561361.708,-113.770,-27.832,-15.137,-53.711
1664561361.711,-83.008,-24.414,-25.391,-47.852
1664561361.715,37.109,-25.391,-23.926,-9.277
1664561361.719,29.297,-29.297,-22.949,-10.742
1664561361.723,-91.797,-32.715,-22.949,-44.434
1664561361.727,-117.188,-34.668,-26.855,-50.293
1664561361.744,4.883,-39.062,-28.809,-18.555
1664561361.748,51.270,-29.785,-23.438,-4.395
1664561361.752,-63.965,-19.043,-14.160,-33.691
1664561361.756,-124.023,-20.508,-12.695,-51.270
1664561361.760,-25.879,-22.949,-22.461,-18.555
1664561361.764,71.777,-34.180,-26.367,1.953
1664561361.768,-23.926,-40.039,-29.785,-33.691
1664561361.771,-118.164,-35.156,-32.227,-58.594
1664561361.775,-48.340,-28.320,-24.414,-31.250
1664561361.779,54.199,-26.855,-22.949,-1.465
1664561361.783,2.930,-22.461,-26.367,-21.484
1664561361.787,-109.375,-26.855,-24.902,-55.176
1664561361.789,-93.750,-31.250,-21.973,-44.922
1664561361.793,32.715,-24.414,-21.484,-8.301
1664561361.797,38.086,-25.391,-19.043,-11.719
1664561361.801,-83.008,-22.949,-26.367,-46.875
1664561361.805,-110.352,-17.578,-30.273,-50.293
1664561361.809,8.789,-21.484,-21.973,-12.207
1664561361.813,64.453,-26.367,-32.715,-4.395
1664561361.816,-42.480,-26.367,-43.945,-32.227
1664561361.820,-107.422,-19.043,-35.645,-42.969
1664561361.824,-21.484,-18.555,-33.203,-14.648
1664561361.828,68.848,-21.484,-36.621,9.766
1664561361.832,-16.113,-22.461,-39.551,-17.578
1664561361.834,-112.793,-17.578,-37.109,-42.480
1664561361.838,-56.641,-12.207,-35.156,-27.344
1664561361.842,56.152,-25.391,-35.645,0.488
1664561361.846,22.949,-30.273,-34.180,-5.371
1664561361.850,-90.820,-26.855,-35.645,-33.203
1664561361.854,-97.656,-29.297,-44.922,-41.504
1664561361.858,19.043,-26.367,-51.758,-18.555
1664561361.861,36.133,-20.508,-52.734,-7.812
1664561361.865,-80.078,-23.926,-51.758,-44.922
1664561361.869,-116.699,-33.691,-50.781,-61.035
1664561361.873,-2.441,-36.621,-46.387,-21.973
1664561361.877,71.777,-28.320,-43.457,6.348
1664561361.877,71.777,-28.320,-43.457,6.348,0
1664561361.880,-13.184,-31.738,-62.988,-22.949,0
1664561361.884,-123.535,-31.250,-64.941,-49.805,0
1664561361.888,-87.402,-34.180,-63.477,-41.504,0
1664561361.891,30.273,-38.086,-65.918,-7.812,0
1664561361.895,14.160,-28.320,-63.477,-13.184,0
1664561361.899,-102.539,-24.414,-62.988,-52.246,0
1664561361.903,-103.516,-35.156,-63.477,-52.734,0
1664561361.907,14.648,-37.598,-60.547,-14.648,0
1664561361.909,33.203,-30.762,-63.477,-17.090,0
1664561361.913,-81.543,-30.273,-64.453,-56.641,0
1664561361.917,-137.695,-35.645,-61.523,-67.383,0
1664561361.921,-36.133,-35.645,-52.734,-36.621,0
1664561361.925,48.340,-27.832,-51.270,-12.207,0
1664561361.929,-49.316,-35.645,-55.664,-38.086,0
1664561361.933,-139.160,-49.805,-52.734,-59.082,0
1664561361.936,-68.359,-43.945,-45.898,-35.645,0
1664561361.940,41.504,-34.668,-46.875,-5.371,0
1664561361.944,-12.207,-31.738,-45.410,-20.020,0
1664561361.948,-116.699,-30.273,-36.133,-46.387,0
1664561361.952,-90.820,-34.668,-28.809,-38.086,90
1664561365.278,32.227,-40.039,-32.715,-7.324,71
1664561365.282,29.785,-31.738,-46.875,-13.672,0
1664561365.286,-100.586,-41.992,-48.340,-53.711,0
1664561365.290,-118.164,-46.875,-38.086,-59.570,0
1664561365.294,10.254,-29.785,-42.969,-26.855,0
1664561365.298,51.270,-25.391,-45.898,-16.602,0
1664561365.302,-63.965,-23.926,-42.480,-47.852,0
1664561365.305,-128.906,-25.879,-40.527,-64.453,0
1664561365.309,-35.156,-36.621,-41.992,-41.992,0
1664561365.313,53.711,-34.180,-45.898,-19.043,0
1664561365.317,-34.180,-32.227,-43.457,-46.387,0
1664561365.321,-130.371,-37.598,-47.852,-68.848,0
1664561365.279,-64.453,-33.203,-48.828,-43.945,0
1664561365.283,47.852,-29.785,-43.457,-8.789,0
1664561365.287,-3.418,-32.715,-36.621,-22.461,0
1664561365.291,-120.605,-36.621,-38.574,-58.105,0
1664561365.295,-104.492,-39.062,-38.086,-57.617,0
1664561365.299,20.020,-39.551,-40.527,-22.461,0
1664561365.303,17.090,-36.133,-52.734,-20.996,0
1664561365.306,-110.840,-30.762,-46.875,-60.059,0
1664561365.310,-132.812,-29.785,-35.156,-63.965,0
1664561365.314,-17.090,-30.273,-37.598,-22.461,0
1664561365.318,35.156,-27.832,-37.598,-8.301,0
1664561365.322,-74.219,-30.762,-35.156,-47.363,0
1664561365.279,-144.043,-38.574,-37.109,-66.406,0
1664561365.283,-44.434,-37.109,-37.109,-45.410,0
1664561365.287,65.918,-30.273,-43.457,-15.137,0
1664561365.291,0.977,-23.438,-46.387,-16.602,0
1664561365.295,-111.328,-25.879,-35.156,-44.434,0
1664561365.299,-85.938,-34.180,-20.508,-45.898,0
1664561365.303,27.832,-40.527,-19.531,-12.695,0
1664561365.306,0.000,-38.574,-17.090,-15.137,0
1664561365.310,-121.094,-37.598,-10.254,-45.410,0
1664561365.314,-127.441,-41.504,-13.184,-40.527,0
1664561365.318,1.465,-38.086,-23.926,-3.906,0
1664561365.322,22.949,-34.180,-33.691,-5.371,0
1664561365.279,-96.191,-31.738,-27.832,-46.875,0
1664561365.283,-125.977,-29.297,-18.066,-61.035,0
1664561365.287,-13.672,-36.621,-22.949,-31.738,0
1664561365.291,46.387,-43.457,-28.809,-14.648,0
1664561365.295,-58.594,-35.645,-28.809,-42.969,0
1664561365.299,-129.883,-25.391,-35.645,-64.453,0
1664561365.303,-47.852,-25.879,-37.109,-40.039,0
1664561365.306,49.805,-28.809,-39.551,-12.207,0
1664561365.310,-13.184,-29.785,-33.691,-30.762,0
1664561365.314,-123.535,-28.809,-30.762,-59.570,0
1664561365.318,-87.402,-33.691,-35.156,-51.758,0
1664561365.322,42.969,-36.621,-39.551,-20.508,0
1664561365.286,25.391,-30.762,-33.691,-20.996,0
1664561365.290,-100.098,-25.391,-20.508,-55.664,0
1664561365.294,-106.934,-22.949,-22.949,-59.570,0
1664561365.298,16.113,-28.809,-33.203,-29.297,0
1664561365.302,40.527,-38.086,-40.039,-24.414,0
1664561365.306,-81.543,-40.039,-39.062,-54.199,0
1664561365.310,-135.742,-36.621,-32.715,-69.336,0
1664561365.313,-31.250,-39.062,-32.715,-42.480,0
1664561365.317,50.781,-35.156,-30.273,-9.766,0
1664561365.321,-48.828,-31.250,-25.879,-30.762,0
1664561365.325,-131.836,-36.621,-30.762,-56.641,0
1664561365.329,-51.270,-33.203,-34.668,-34.180,0
1664561365.289,53.711,-29.297,-39.062,-5.371,0
1664561365.293,-13.184,-25.879,-32.715,-20.508,0
1664561365.297,-115.234,-24.414,-24.902,-45.898,0
1664561365.301,-82.031,-31.250,-28.320,-35.645,0
1664561365.305,19.531,-35.156,-33.203,-4.883,0
1664561365.309,0.000,-39.062,-25.391,-16.113,0
1664561365.313,-98.145,-35.156,-20.996,-46.387,0
1664561365.316,-113.281,-23.926,-27.832,-42.480,0
1664561365.320,0.000,-26.855,-28.809,-15.137,0
1664561365.324,46.387,-24.414,-24.902,-6.348,0
1664561365.328,-68.848,-21.484,-21.973,-38.086,0
1664561365.332,-129.883,-20.996,-25.391,-51.270,0
1664561365.290,-25.391,-23.926,-25.391,-17.578,0
1664561365.294,51.270,-37.109,-26.855,-1.953,0
1664561365.298,-41.992,-35.645,-28.809,-29.297,0
1664561365.302,-130.371,-29.785,-28.320,-57.129,0
1664561365.306,-69.824,-37.109,-30.273,-41.016,0
1664561365.310,41.992,-37.109,-26.367,-3.906,0
1664561365.314,-7.324,-34.668,-15.625,-15.625,0
1664561365.317,-122.559,-34.668,-13.672,-45.410,0
1664561365.321,-103.516,-31.738,-26.855,-40.527,0
1664561365.325,17.578,-32.715,-35.645,-18.555,0
1664561365.329,26.367,-24.414,-36.133,-15.137,0
1664561365.333,-96.680,-26.367,-38.086,-49.316,0
1664561365.290,-129.395,-34.180,-38.574,-64.941,0
1664561365.294,-6.348,-33.203,-30.762,-32.227,0
1664561365.298,44.922,-25.879,-31.738,-14.648,0
1664561365.302,-74.707,-24.414,-39.551,-52.246,0
1664561365.306,-141.602,-32.227,-36.133,-73.242,0
1664561365.310,-46.387,-33.691,-36.133,-39.062,0
1664561365.314,46.387,-33.203,-35.156,-8.301,0
1664561365.317,-30.273,-29.297,-26.367,-23.926,0
1664561365.321,-124.512,-19.043,-28.320,-43.457,0
1664561365.325,-66.895,-22.949,-35.645,-28.809,0
1664561365.329,49.805,-30.762,-30.273,2.441,0
1664561365.333,6.348,-27.832,-21.484,-6.836,0
1664561365.291,-114.746,-32.715,-24.414,-44.434,0
1664561365.295,-108.887,-36.621,-35.645,-44.922,0
1664561365.299,9.277,-35.156,-37.109,-11.230,0
1664561365.303,22.949,-31.738,-35.645,-8.789,0
1664561365.307,-80.078,-26.855,-34.180,-38.574,0
1664561365.311,-110.840,-26.367,-30.273,-44.922,0
1664561365.315,-0.977,-26.855,-24.902,-12.695,0
1664561365.318,52.246,-34.668,-23.438,6.836,0
1664561365.322,-64.453,-37.109,-26.367,-21.973,0
1664561365.326,-132.812,-28.320,-26.367,-45.898,0
1664561365.330,-45.898,-26.855,-33.691,-25.391,0
1664561365.334,53.223,-27.832,-38.086,5.859,0
1664561365.291,-20.996,-34.180,-30.273,-18.066,0
1664561365.295,-125.000,-40.527,-25.879,-55.176,0
1664561365.299,-83.496,-40.039,-30.273,-40.527,0
1664561365.303,34.180,-34.668,-27.832,-3.418,0
1664561365.307,17.090,-22.461,-16.602,-9.766,0
1664561365.311,-99.609,-19.043,-19.531,-46.387,0
1664561365.315,-104.492,-20.996,-21.973,-51.758,0
1664561365.318,18.555,-27.832,-23.438,-20.508,0
1664561365.322,51.270,-31.250,-26.855,-11.719,0
1664561365.326,-57.129,-26.855,-18.066,-41.504,0
1664561365.330,-112.793,-28.320,-10.742,-51.758,0
1664561365.334,-14.160,-20.508,-18.066,-21.973,0
1664561365.291,68.359,-12.207,-25.391,-3.418,0
1664561365.295,-34.668,-22.461,-24.902,-36.133,0
1664561365.299,-126.465,-29.785,-30.762,-64.453,0
1664561365.303,-53.223,-28.320,-34.180,-40.039,0
1664561365.307,56.152,-25.879,-27.832,-3.418,0
1664561365.311,-2.441,-19.531,-26.367,-20.020,0
1664561365.315,-117.188,-20.996,-29.297,-53.223,0
1664561365.318,-85.938,-24.902,-33.203,-45.898,0
1664561365.322,36.133,-25.879,-29.785,-17.090,0
1664561365.326,17.578,-27.344,-21.484,-21.973,0
1664561365.330,-106.445,-25.391,-21.484,-53.711,0
1664561365.334,-115.723,-24.902,-20.996,-58.105,0
1664561365.292,9.766,-23.926,-15.625,-20.996,0
1664561365.296,45.898,-19.531,-15.137,-8.789,0
1664561365.300,-69.336,-20.996,-21.973,-43.457,0
1664561365.304,-124.023,-22.949,-23.438,-62.012,0
1664561365.308,-26.367,-23.438,-21.973,-34.180,0
1664561365.312,51.758,-33.203,-23.438,-12.207,0
1664561365.316,-41.016,-38.086,-27.344,-38.574,0
1664561365.319,-127.441,-36.133,-21.973,-57.617,0
1664561365.323,-49.805,-37.109,-8.789,-20.996,0
1664561365.327,66.406,-32.715,-18.555,4.395,0
1664561365.331,2.930,-26.367,-38.086,-38.574,0
1664561365.335,-110.352,-19.043,-35.645,-60.547,0
1664561365.293,-77.637,-15.625,-30.762,-31.738,0
1664561365.297,43.945,-19.043,-30.273,-1.953,0
1664561365.301,40.039,-21.484,-26.367,-7.812,0
1664561365.305,-77.148,-20.996,-21.484,-39.062,0
1664561365.309,-105.469,-21.973,-26.367,-52.246,0
1664561365.313,9.766,-28.809,-33.691,-21.484,0
1664561365.317,64.453,-27.832,-30.762,-4.883,0
1664561365.320,-48.340,-18.066,-27.344,-34.668,0
1664561365.324,-108.398,-12.695,-28.320,-43.457,0
1664561365.328,-12.207,-13.184,-34.668,-20.020,0
1664561365.332,78.613,-14.648,-34.180,2.930,0
1664561365.336,-8.301,-17.578,-28.809,-14.160,0
1664561365.293,-117.188,-28.809,-34.668,-50.293,0
1664561365.297,-69.336,-33.691,-42.969,-40.527,0
1664561365.301,54.199,-25.391,-42.969,0.488,0
1664561365.305,20.020,-15.137,-32.715,-3.418,0
1664561365.309,-84.473,-15.625,-22.461,-37.109,0
1664561365.313,-70.801,-28.809,-25.391,-41.016,0
1664561365.317,37.598,-31.738,-32.227,-9.766,0
1664561365.320,52.734,-22.461,-31.250,1.465,0
1664561365.324,-69.336,-23.438,-34.180,-27.344,0
1664561365.328,-111.816,-20.020,-38.574,-48.340,0
1664561365.332,2.441,-12.695,-34.180,-20.020,0
1664561365.336,67.871,-20.020,-26.367,3.418,0
1664561365.294,-40.527,-29.297,-22.461,-27.832,0
1664561365.298,-117.676,-33.691,-27.832,-46.875,0
1664561365.302,-26.855,-24.902,-27.344,-10.254,0
1664561365.306,70.312,-20.508,-19.531,13.672,0
1664561365.310,-8.301,-21.973,-20.996,-10.254,0
1664561365.314,-109.375,-22.461,-25.879,-35.156,0
1664561365.318,-64.453,-21.484,-23.926,-27.832,0
1664561365.321,50.293,-22.949,-24.414,5.859,0
1664561365.325,16.113,-32.715,-26.855,-2.930,0
1664561365.329,-105.957,-30.273,-25.879,-38.574,0
1664561365.333,-106.445,-22.949,-25.879,-37.598,0
1664561365.337,23.926,-29.785,-25.391,-8.789,0
1664561365.295,54.199,-24.414,-24.414,-2.441,0
1664561365.299,-66.406,-8.301,-21.973,-37.109,0
1664561365.303,-115.234,-14.648,-24.902,-55.176,0
1664561365.307,-15.137,-23.926,-30.273,-22.461,0
1664561365.311,53.223,-25.391,-27.832,4.395,0
1664561365.315,-41.504,-25.879,-22.461,-23.438,0
1664561365.319,-122.559,-20.996,-21.484,-43.457,0
1664561365.322,-43.457,-17.578,-21.973,-19.043,0
1664561365.326,55.664,-19.043,-21.484,-1.465,0
1664561365.330,-13.672,-18.066,-22.949,-21.484,0
1664561365.334,-110.840,-20.508,-28.320,-45.898,0
1664561365.338,-70.801,-32.227,-27.832,-40.527,0
1664561365.295,54.688,-36.621,-15.625,-8.301,0
1664561365.299,40.039,-24.902,-18.066,-4.395,0
1664561365.303,-88.379,-22.949,-24.902,-39.062,0
1664561365.307,-105.469,-25.391,-22.461,-50.293,0
1664561365.311,16.113,-15.625,-25.391,-15.137,0
1664561365.315,55.176,-14.648,-22.461,-2.441,0
1664561365.319,-56.641,-23.438,-8.301,-29.297,0
1664561365.322,-112.305,-23.438,-8.789,-43.945,0
1664561365.326,-3.906,-18.555,-18.066,-20.020,0
1664561365.330,71.777,-20.508,-15.137,0.488,0
1664561365.334,-28.809,-23.926,-16.113,-26.367,0
1664561365.338,-108.398,-22.461,-13.672,-46.387,0
1664561365.296,-44.434,-25.879,-7.812,-28.809,0
1664561365.300,59.570,-22.949,-9.766,-1.465,0
1664561365.304,10.742,-17.090,-12.695,-14.648,0
1664561365.308,-98.145,-15.137,-16.113,-43.945,0
1664561365.312,-78.613,-14.648,-22.461,-41.016,0
1664561365.316,40.527,-14.648,-20.996,-11.230,0
1664561365.320,41.504,-12.207,-6.836,-3.418,0
1664561365.323,-78.125,-11.719,-8.301,-45.410,0
1664561365.327,-106.445,-20.996,-20.020,-53.711,0
1664561365.331,0.977,-22.949,-24.902,-16.602,0
1664561365.335,42.969,-23.438,-25.391,-9.277,0
1664561365.339,-68.359,-21.484,-20.020,-36.621,0
1664561365.296,-128.418,-15.625,-17.090,-47.852,0
1664561365.300,-27.832,-16.602,-21.973,-20.996,0
1664561365.304,64.941,-14.648,-25.879,1.465,0
1664561365.308,-22.461,-13.672,-34.668,-22.949,0
1664561365.312,-116.211,-22.949,-33.203,-45.898,0
1664561365.316,-46.875,-23.438,-23.926,-13.184,0
1664561365.320,69.824,-13.672,-20.508,22.461,0
1664561365.323,23.438,-11.719,-16.113,0.977,0
1664561365.327,-92.285,-13.184,-21.973,-36.133,0
1664561365.331,-81.055,-9.766,-36.621,-34.668,0
1664561365.335,40.527,-14.160,-31.738,0.000,0
1664561365.339,40.527,-20.020,-19.043,2.441,0
1664561365.296,-79.590,-16.602,-18.555,-29.297,0
1664561365.300,-97.168,-11.230,-21.484,-36.621,0
1664561365.304,19.531,-6.836,-25.879,-11.230,0
1664561365.308,72.266,-8.789,-26.367,-0.488,0
1664561365.312,-37.598,-11.230,-20.020,-28.320,0
1664561365.316,-112.305,-2.441,-19.531,-46.387,0
1664561365.320,-38.086,-7.812,-27.344,-28.320,0
1664561365.323,61.523,-12.207,-27.344,-0.977,0
1664561365.327,-11.230,-11.230,-23.926,-21.973,0
1664561365.331,-120.605,-19.043,-27.344,-53.711,0
1664561365.335,-66.895,-21.973,-29.785,-41.016,0
1664561365.339,56.152,-22.949,-28.320,-1.465,0
1664561365.296,20.508,-22.461,-31.738,-10.254,0
1664561365.300,-104.980,-30.273,-35.156,-54.688,0
1664561365.304,-106.445,-37.109,-39.551,-57.617,0
1664561365.308,22.949,-34.180,-35.156,-16.602,0
1664561365.312,52.246,-28.809,-34.668,-6.836,0
1664561365.316,-67.383,-33.203,-40.039,-39.062,0
1664561365.320,-114.258,-37.109,-36.133,-49.316,0
1664561365.323,-7.324,-28.809,-39.551,-15.625,0
1664561365.327,53.223,-20.508,-43.457,5.371,0
1664561365.331,-58.594,-26.855,-46.875,-27.832,0
1664561365.335,-135.742,-37.109,-51.270,-53.223,0
1664561365.339,-57.129,-32.227,-46.875,-27.344,0
1664561365.297,55.176,-30.762,-41.992,0.977,0
1664561365.301,-9.277,-34.180,-49.316,-19.531,0
1664561365.305,-119.629,-25.879,-43.457,-43.945,0
1664561365.309,-77.148,-23.926,-35.645,-27.832,0
1664561365.313,39.062,-34.180,-41.992,2.930,0
1664561365.317,16.602,-39.062,-45.410,-9.277,0
1664561365.321,-105.957,-30.273,-45.898,-49.316,0
1664561365.324,-117.188,-24.414,-41.016,-49.316,0
1664561365.328,6.348,-27.832,-33.203,-11.719,0
1664561365.332,40.039,-34.180,-29.297,-12.695,0
1664561365.336,-76.172,-26.855,-31.250,-50.293,0
1664561365.340,-130.371,-22.461,-33.691,-63.477,0
1664561365.297,-26.367,-27.344,-32.715,-32.715,0
1664561365.301,54.199,-32.715,-37.598,-20.020,0
1664561365.305,-49.316,-34.668,-39.062,-46.387,0
1664561365.309,-143.555,-31.250,-39.551,-67.383,0
1664561365.313,-63.965,-20.508,-38.574,-51.270,0
1664561365.317,58.105,-8.789,-36.621,-14.160,0
1664561365.321,-7.812,-11.719,-36.133,-27.344,0
1664561365.324,-142.090,-21.484,-30.273,-65.918,0
1664561365.328,-120.117,-29.297,-28.320,-64.453,0
1664561365.332,11.719,-31.738,-29.297,-29.297,0
1664561365.336,4.883,-28.320,-24.902,-28.320,0
1664561365.340,-126.953,-25.879,-32.715,-71.289,0
1664561365.298,-154.785,-32.715,-45.410,-83.984,0
1664561365.302,-31.738,-36.133,-41.016,-53.711,0
1664561365.306,16.113,-23.926,-36.133,-42.480,0
1664561365.310,-104.980,-18.555,-32.227,-80.078,0
1664561365.314,-178.711,-19.531,-29.297,-106.934,0
1664561365.318,-84.961,-13.672,-32.227,-84.473,0
1664561365.322,-3.906,-10.742,-29.785,-71.289,0
1664561365.325,-103.027,-23.926,-29.297,-111.328,0
1664561365.329,-204.590,-24.902,-27.344,-147.461,0
1664561365.333,-158.691,-15.137,-21.973,-143.555,0
1664561365.337,-47.363,-10.254,-17.090,-115.723,0
1664561365.341,-94.727,-11.719,-13.184,-130.859,0
1664561365.298,-216.309,-17.578,-10.254,-181.641,0
1664561365.302,-207.031,-17.578,-8.301,-183.105,0
1664561365.306,-92.773,-17.578,-6.836,-145.020,0
1664561365.310,-78.613,-20.020,-1.953,-132.812,0
1664561365.314,-194.824,-23.438,-12.207,-166.504,0
1664561365.318,-224.609,-20.020,-16.113,-168.945,0
1664561365.322,-98.633,-11.230,-11.719,-124.512,0
1664561365.325,-39.551,-16.602,-13.672,-111.816,0
1664561365.329,-151.367,-26.855,-17.578,-143.066,0
1664561365.333,-214.355,-21.973,-21.484,-148.438,0
1664561365.337,-110.840,-19.531,-17.578,-111.328,0
1664561365.341,-0.488,-22.461,-16.113,-76.172,0
1664561365.298,-67.383,-17.090,-19.531,-90.332,0
1664561365.302,-163.086,-12.695,-19.531,-114.258,0
1664561365.306,-112.305,-22.461,-25.879,-100.586,0
1664561365.310,14.160,-25.879,-24.902,-53.711,0
1664561365.314,-3.418,-23.438,-20.996,-50.293,0
1664561365.318,-116.699,-25.879,-23.926,-79.102,0
1664561365.322,-113.770,-24.414,-22.949,-65.430,0
1664561365.325,14.160,-36.133,-27.344,-29.297,0
1664561365.329,46.387,-41.504,-32.715,-18.066,0
1664561365.333,-66.895,-32.715,-42.480,-48.828,0
1664561365.337,-104.004,-27.832,-45.898,-59.082,0
1664561365.341,7.812,-30.762,-36.133,-19.531,0
1664561365.298,73.242,-41.992,-31.738,7.812,0
1664561365.302,-30.273,-42.969,-37.109,-18.555,0
1664561365.306,-108.398,-40.527,-41.992,-36.133,0
1664561365.310,-21.973,-36.133,-40.527,-6.836,0
1664561365.314,90.332,-30.762,-38.086,28.809,0
1664561365.318,27.344,-28.809,-37.109,15.137,0
1664561365.322,-83.984,-35.645,-41.992,-17.090,0
1664561365.325,-41.992,-43.457,-42.480,-0.977,0
1664561365.329,87.402,-34.180,-36.621,40.039,0
1664561365.333,64.941,-31.738,-37.598,30.273,0
1664561365.337,-61.035,-36.133,-42.969,-5.371,0
1664561365.341,-71.777,-33.203,-44.922,-10.254,0
1664561365.299,55.664,-33.691,-40.527,24.902,0
1664561365.303,86.426,-33.203,-43.945,35.645,0
1664561365.307,-34.180,-35.645,-47.363,0.488,0
1664561365.311,-79.590,-34.668,-40.039,-10.742,0
1664561365.315,27.832,-30.273,-37.598,23.926,0
1664561365.319,97.168,-34.668,-41.016,48.340,0
1664561365.323,-0.488,-33.691,-39.062,24.414,0
1664561365.326,-87.891,-31.738,-40.527,-7.812,0
1664561365.330,-23.926,-41.016,-43.457,9.277,0
1664561365.334,80.078,-49.805,-43.945,38.086,0
1664561365.338,21.484,-37.598,-39.551,11.719,0
1664561365.342,-78.613,-25.391,-32.227,-11.230,0
1664561365.300,-49.805,-33.203,-37.109,2.930,0
1664561365.304,72.266,-40.039,-37.109,33.203,0
1664561365.308,76.172,-36.621,-29.785,28.320,0
1664561365.312,-44.922,-30.762,-26.855,-4.395,0
1664561365.316,-71.289,-26.855,-29.297,-4.395,0
1664561365.320,48.340,-35.156,-33.691,26.367,0
1664561365.324,88.867,-38.086,-36.133,39.551,0
1664561365.327,-26.367,-32.715,-35.645,5.859,0
1664561365.331,-86.914,-33.203,-33.203,-14.160,0
1664561365.335,2.441,-29.297,-31.738,10.742,0
1664561365.339,84.473,-24.902,-29.297,33.691,0
1664561365.343,-1.953,-29.297,-28.320,11.230,0
1664561365.300,-99.121,-34.668,-32.227,-14.160,0
1664561365.304,-37.109,-31.250,-29.297,4.883,0
1664561365.308,74.707,-32.227,-34.180,32.227,0
1664561365.312,30.273,-22.461,-37.598,20.508,0
1664561365.316,-87.402,-19.531,-27.832,-13.184,0
1664561365.320,-76.660,-34.668,-27.832,-18.555,0
1664561365.324,46.875,-35.156,-40.039,7.324,0
1664561365.327,44.922,-23.438,-39.062,4.883,0
1664561365.331,-78.125,-25.391,-32.715,-27.832,0
1664561365.335,-105.957,-28.809,-35.156,-41.016,0
1664561365.339,8.789,-28.320,-37.598,-9.766,0
1664561365.343,64.941,-23.926,-23.438,20.508,0
1664561365.300,-49.805,-29.297,-20.508,-8.301,0
1664561365.304,-120.117,-36.133,-26.367,-35.645,0
1664561365.308,-22.949,-29.297,-26.367,-8.789,0
1664561365.312,66.406,-26.855,-33.203,7.812,0
1664561365.316,-21.973,-33.691,-31.250,-19.531,0
1664561365.320,-126.465,-33.691,-25.879,-42.480,0
1664561365.324,-69.824,-29.297,-20.508,-25.879,0
1664561365.327,66.406,-25.391,-16.602,8.789,0
1664561365.331,34.668,-22.461,-15.625,-2.441,0
1664561365.335,-97.168,-16.113,-17.578,-33.691,0
1664561365.339,-91.797,-18.066,-20.508,-33.691,0
1664561365.343,43.945,-16.602,-20.508,6.836,0
1664561365.300,58.594,-20.020,-31.250,6.836,0
1664561365.304,-70.312,-28.320,-33.203,-38.574,0
1664561365.308,-106.934,-25.391,-19.531,-44.434,0
1664561365.312,5.371,-26.367,-17.578,-9.766,0
1664561365.316,69.824,-21.973,-21.973,11.230,0
1664561365.320,-42.969,-16.602,-23.926,-26.367,0
1664561365.324,-120.117,-21.484,-20.996,-46.875,0
1664561365.327,-31.250,-21.484,-21.973,-8.789,0
1664561365.331,62.012,-22.949,-27.832,14.160,0
1664561365.335,-12.695,-24.902,-28.320,-8.789,0
1664561365.339,-112.305,-23.438,-25.391,-38.574,0
1664561365.343,-67.871,-21.973,-15.137,-33.203,0
1664561365.301,54.199,-19.043,-8.789,0.977,0
1664561365.305,32.715,-14.160,-6.836,1.465,0
1664561365.309,-91.309,-20.020,-19.043,-30.273,0
1664561365.313,-101.074,-30.273,-28.809,-36.621,0
1664561365.317,22.461,-28.320,-28.320,-2.930,0
1664561365.321,48.828,-30.273,-28.809,1.953,0
1664561365.325,-69.824,-33.691,-20.996,-31.250,0
1664561365.328,-119.141,-19.043,-21.484,-48.828,0
1664561365.332,-21.973,-18.555,-28.320,-23.438,0
1664561365.336,51.758,-38.086,-23.438,-4.395,0
1664561365.340,-47.852,-35.156,-21.973,-32.227,0
1664561365.344,-135.254,-22.949,-19.043,-57.617,0
1664561365.301,-58.105,-18.555,-10.254,-32.715,0
1664561365.305,56.641,-14.648,-10.742,6.348,0
1664561365.309,-2.441,-17.578,-10.742,-7.324,0
1664561365.313,-109.863,-24.414,-11.230,-42.480,0
1664561365.317,-74.707,-23.438,-11.719,-44.434,0
1664561365.321,44.434,-21.484,-14.648,-9.277,0
1664561365.325,38.086,-20.020,-12.695,-1.465,0
1664561365.328,-80.566,-14.648,-8.789,-39.062,0
1664561365.332,-100.586,-14.648,-15.137,-47.852,0
1664561365.336,15.137,-20.020,-18.555,-18.066,0
1664561365.340,48.828,-22.949,-23.438,-14.160,0
1664561365.344,-65.430,-26.367,-23.438,-47.852,0
1664561365.301,-117.188,-30.762,-21.973,-59.570,0
1664561365.305,-19.043,-28.320,-18.066,-30.273,0
1664561365.309,71.777,-22.949,-12.695,-4.395,0
1664561365.313,-15.625,-16.113,-15.137,-23.438,0
1664561365.317,-114.746,-14.160,-11.719,-44.922,0
1664561365.321,-57.617,-20.996,-10.742,-26.855,0
1664561365.325,55.176,-27.344,-22.461,-1.465,0
1664561365.328,12.207,-26.367,-24.902,-13.672,0
1664561365.332,-90.820,-15.137,-12.695,-41.016,0
1664561365.336,-79.102,-6.348,-12.207,-35.156,0
1664561365.340,45.410,-2.930,-25.391,-2.441,0
1664561365.344,50.293,-2.441,-25.391,1.953,0
1664561365.302,-82.031,-13.672,-26.855,-24.902,0
1664561365.306,-109.863,-18.555,-38.574,-37.109,0
1664561365.310,11.719,-18.066,-42.969,-8.789,0
1664561365.314,68.848,-23.438,-29.297,4.395,0
1664561365.318,-42.480,-20.996,-13.184,-26.855,0
1664561365.322,-113.770,-12.695,-9.766,-43.945,0
1664561365.326,-22.949,-17.090,-15.625,-15.625,0
1664561365.329,72.266,-25.879,-23.438,6.836,0
1664561365.333,-5.859,-24.414,-23.438,-18.555,0
1664561365.337,-104.004,-25.879,-22.461,-42.480,0
1664561365.341,-56.152,-26.855,-22.949,-33.691,0
1664561365.345,61.523,-20.508,-19.531,-1.465,0
1664561365.302,24.902,-19.043,-20.996,-8.301,0
1664561365.306,-99.121,-15.137,-28.809,-41.992,0
1664561365.310,-98.145,-22.949,-29.785,-45.898,0
1664561365.314,28.809,-30.273,-29.785,-11.719,0
1664561365.318,46.875,-18.555,-28.809,-0.977,0
1664561365.322,-81.055,-20.996,-25.391,-34.668,0
1664561365.326,-111.816,-23.926,-19.043,-42.969,0
1664561365.329,0.000,-18.066,-20.996,-13.184,0
1664561365.333,53.711,-18.066,-24.902,3.418,0
1664561365.337,-52.246,-19.531,-21.484,-24.902,0
1664561365.341,-133.301,-25.391,-29.297,-53.711,0
1664561365.345,-52.246,-26.855,-30.273,-28.809,0
1664561365.302,51.270,-20.508,-24.902,5.859,0
1664561365.306,-22.461,-16.602,-26.855,-15.625,0
1664561365.310,-126.465,-17.578,-26.367,-42.480,0
1664561365.314,-76.172,-12.207,-26.367,-28.320,0
1664561365.318,47.363,-7.812,-22.461,2.930,0
1664561365.322,22.461,-12.207,-18.066,-7.324,0
1664561365.326,-94.238,-20.020,-16.602,-39.551,0
1664561365.329,-91.797,-20.020,-20.508,-32.715,0
1664561365.333,31.250,-24.414,-26.367,7.324,0
1664561365.337,54.688,-25.879,-29.785,5.371,0
1664561365.341,-65.918,-17.578,-24.902,-32.227,0
1664561365.345,-112.793,-19.043,-20.020,-43.457,0
1664561365.302,-8.789,-20.020,-22.461,-22.461,0
1664561365.306,62.988,-21.484,-24.414,-4.883,0
1664561365.310,-30.273,-20.996,-20.996,-21.973,0
1664561365.314,-110.352,-22.461,-18.555,-48.340,0
1664561365.318,-37.109,-23.926,-18.066,-32.715,0
1664561365.322,64.453,-24.414,-16.602,-0.488,0
1664561365.326,0.977,-31.738,-21.484,-19.043,0
1664561365.329,-111.816,-30.273,-24.902,-47.363,0
1664561365.333,-79.590,-23.926,-21.484,-32.227,0
1664561365.337,43.945,-24.414,-12.695,1.953,0
1664561365.341,27.344,-32.227,-7.812,-2.930,0
1664561365.345,-88.379,-28.320,-8.789,-33.691,0
1664561365.303,-101.562,-15.137,-13.672,-34.668,0
1664561365.307,16.113,-22.461,-20.020,-6.348,0
1664561365.311,58.105,-27.832,-24.902,-3.418,0
1664561365.315,-63.965,-22.949,-26.855,-38.574,0
1664561365.319,-120.117,-26.855,-27.344,-59.082,0
1664561365.323,-16.113,-36.133,-38.574,-35.645,0
1664561365.327,59.570,-30.762,-41.992,-13.184,0
1664561365.330,-33.203,-21.484,-31.738,-29.785,0
1664561365.334,-127.441,-21.484,-24.902,-56.152,0
1664561365.338,-61.523,-18.066,-35.645,-44.922,0
1664561365.342,53.711,-20.020,-42.969,-9.766,0
1664561365.346,3.418,-21.973,-41.504,-21.973,0
1664561365.306,-107.910,-23.438,-38.086,-53.223,0
1664561365.310,-89.844,-20.508,-33.203,-42.969,0
1664561365.314,33.691,-24.902,-33.691,-6.836,0
1664561365.318,32.227,-27.344,-28.320,0.977,0
1664561365.322,-87.891,-17.090,-22.949,-29.297,0
1664561365.326,-103.027,-13.672,-29.785,-38.086,0
1664561365.330,16.602,-14.648,-34.180,-6.836,0
1664561365.333,67.871,-20.020,-29.297,2.930,0
1664561365.337,-47.363,-15.137,-27.832,-24.414,0
1664561365.341,-114.746,-2.441,-28.320,-41.016,0
1664561365.345,-15.625,-9.766,-25.879,-13.184,0
1664561365.349,77.148,-17.578,-35.645,11.719,0
1664561365.306,-13.184,-20.996,-43.945,-14.648,0
1664561365.310,-118.652,-26.855,-37.109,-42.480,0
1664561365.314,-60.547,-26.367,-34.180,-21.484,0
1664561365.318,55.664,-23.438,-34.180,9.766,0
1664561365.322,14.160,-20.508,-25.391,0.977,0
1664561365.326,-105.957,-20.508,-27.832,-34.180,0
1664561365.330,-104.004,-29.297,-36.133,-41.992,0
1664561365.333,21.484,-38.086,-35.645,-2.930,0
1664561365.337,41.016,-36.621,-34.668,7.324,0
1664561365.341,-70.312,-26.855,-29.785,-28.320,0
1664561365.345,-100.098,-15.137,-32.715,-34.668,0
1664561365.349,4.395,-19.043,-43.457,-8.789,0
1664561365.307,64.453,-26.367,-35.645,2.930,0
1664561365.311,-46.387,-20.508,-23.438,-22.461,0
1664561365.315,-127.930,-18.555,-26.855,-45.898,0
1664561365.319,-41.504,-33.691,-33.203,-27.344,0
1664561365.323,50.293,-32.227,-40.039,-1.465,0
1664561365.327,-23.438,-20.508,-48.828,-19.043,0
1664561365.331,-108.887,-23.926,-46.387,-45.898,0
1664561365.334,-67.383,-30.273,-42.480,-36.621,0
1664561365.338,53.711,-22.949,-39.062,0.977,0
1664561365.342,32.227,-19.531,-36.621,1.953,0
1664561365.346,-97.656,-27.832,-44.922,-39.062,0
1664561365.350,-102.539,-29.297,-43.945,-46.875,0
1664561365.307,20.508,-26.855,-39.551,-8.301,0
1664561365.311,41.992,-21.973,-44.434,-3.418,0
1664561365.315,-81.543,-24.414,-51.270,-50.293,0
1664561365.319,-130.859,-29.785,-59.082,-64.453,0
1664561365.323,-16.113,-20.508,-49.805,-25.879,0
1664561365.327,57.617,-22.949,-39.551,-7.324,0
1664561365.331,-50.781,-36.621,-44.434,-37.598,0
1664561365.334,-135.742,-37.109,-39.551,-58.594,0
1664561365.338,-52.734,-31.250,-38.086,-35.156,0
1664561365.342,71.289,-21.973,-39.551,11.719,0
1664561365.346,19.043,-16.113,-37.109,2.441,0
1664561365.350,-114.258,-25.391,-33.691,-50.293,0
1664561365.307,-100.098,-33.691,-34.668,-52.734,0
1664561365.311,29.297,-34.668,-29.297,-12.207,0
1664561365.315,15.137,-30.273,-23.926,-16.602,0
1664561365.319,-108.887,-23.438,-23.438,-54.688,0
1664561365.323,-107.910,-23.926,-18.555,-54.688,0
1664561365.327,13.184,-28.320,-18.555,-21.973,0
1664561365.331,32.227,-33.203,-24.414,-23.438,0
1664561365.334,-82.520,-30.762,-25.391,-53.223,0
1664561365.338,-140.625,-28.320,-29.785,-64.453,0
1664561365.342,-36.621,-29.785,-32.227,-36.133,0
1664561365.346,52.246,-22.949,-34.668,-6.836,0
1664561365.350,-41.504,-22.461,-30.273,-29.785,0
1664561365.307,-126.465,-30.762,-23.438,-60.547,0
1664561365.311,-54.199,-35.645,-29.297,-43.457,0
1664561365.315,56.152,-36.621,-34.180,-2.930,0
1664561365.319,4.395,-31.250,-32.715,-10.742,0
1664561365.323,-107.422,-32.715,-28.320,-45.898,0
1664561365.327,-83.984,-31.250,-27.344,-47.852,0
1664561365.331,38.574,-19.043,-21.973,-14.160,0
1664561365.334,41.504,-14.160,-14.160,-4.883,0
1664561365.338,-77.637,-22.949,-20.508,-34.668,0
1664561365.342,-109.863,-25.879,-29.785,-49.316,0
1664561365.346,8.789,-18.066,-29.785,-16.113,0
1664561365.350,62.012,-20.508,-26.367,2.441,0
1664561365.307,-53.711,-26.855,-18.066,-24.902,0
1664561365.311,-119.629,-32.715,-17.578,-42.969,0
1664561365.315,-18.555,-34.668,-24.414,-20.508,0
1664561365.319,77.637,-29.297,-23.926,9.766,0
1664561365.323,-21.973,-25.391,-24.414,-16.113,0
1664561365.327,-127.930,-20.020,-25.391,-56.641,0
1664561365.331,-66.406,-20.996,-25.391,-38.574,0
1664561365.334,50.293,-21.484,-23.926,4.395,0
1664561365.338,11.719,-23.926,-23.926,-7.324,0
1664561365.342,-110.352,-32.227,-29.785,-44.434,0
1664561365.346,-94.727,-23.926,-28.809,-36.621,0
1664561365.350,34.668,-20.996,-28.809,-2.930,0
1664561365.308,40.527,-25.391,-29.785,-3.418,0
1664561365.312,-84.473,-33.691,-22.949,-44.922,0
1664561365.316,-125.000,-34.180,-21.484,-57.617,0
1664561365.320,-12.695,-29.297,-28.809,-19.531,0
1664561365.324,48.340,-34.180,-25.879,-2.441,0
1664561365.328,-58.594,-36.133,-23.926,-35.645,0
1664561365.332,-133.301,-29.785,-32.715,-54.688,0
1664561365.335,-50.293,-24.902,-33.203,-24.902,0
1664561365.339,53.711,-29.785,-27.832,3.906,0
1664561365.343,-21.973,-29.785,-29.297,-17.090,0
1664561365.347,-133.301,-35.645,-26.367,-48.340,0
1664561365.351,-78.125,-33.203,-26.855,-39.062,0
1664561365.309,47.852,-30.273,-37.109,-12.207,0
1664561365.313,18.555,-26.855,-33.203,-19.531,0
1664561365.317,-107.422,-21.484,-28.320,-49.316,0
1664561365.321,-111.816,-24.902,-31.738,-53.223,0
1664561365.325,18.066,-29.297,-31.738,-18.555,0
1664561365.329,41.016,-32.227,-18.066,-8.789,0
1664561365.333,-83.984,-35.156,-18.066,-41.504,0
1664561365.336,-127.441,-32.715,-27.832,-57.617,0
1664561365.340,-13.184,-32.227,-29.297,-28.809,0
1664561365.344,58.105,-24.902,-33.691,-10.742,0
1664561365.348,-46.387,-18.066,-38.086,-34.668,0
1664561365.352,-133.301,-31.738,-41.016,-60.059,0
1664561365.310,-62.988,-39.062,-36.133,-42.969,0
1664561365.314,41.016,-34.668,-34.180,-12.207,0
1664561365.318,-13.672,-36.133,-33.691,-27.344,0
1664561365.322,-124.023,-36.133,-37.598,-63.477,0
1664561365.326,-83.496,-23.926,-38.086,-53.223,0
1664561365.330,45.410,-23.438,-32.227,-8.301,0
1664561365.334,16.602,-37.109,-30.762,-10.254,0
1664561365.337,-104.980,-41.016,-36.621,-54.688,0
1664561365.341,-109.375,-33.691,-34.180,-61.523,0
1664561365.345,19.531,-27.832,-39.062,-22.949,0
1664561365.349,54.688,-15.137,-51.270,-14.648,0
1664561365.353,-65.430,-14.160,-42.480,-45.410,0
1664561365.312,-117.188,-24.414,-37.598,-62.988,0
1664561365.316,-6.348,-25.391,-44.922,-25.879,0
1664561365.320,82.520,-29.297,-41.504,13.672,0
1664561365.324,-23.926,-30.273,-34.180,-14.160,0
1664561365.328,-128.418,-26.855,-26.367,-52.246,0
1664561365.332,-60.059,-22.461,-20.020,-35.156,0
1664561365.336,55.664,-23.438,-19.043,0.977,0
1664561365.339,-7.324,-30.762,-20.508,-18.066,0
1664561365.343,-121.094,-36.133,-14.160,-51.270,0
1664561365.347,-92.285,-39.062,-14.160,-35.156,0
1664561365.351,25.391,-31.738,-19.531,0.977,0
1664561365.355,19.043,-35.156,-17.578,-10.254,0
1664561365.313,-104.980,-40.527,-23.926,-49.805,0
1664561365.317,-127.441,-38.086,-27.832,-50.293,0
1664561365.321,-8.301,-46.387,-31.738,-13.672,0
1664561365.325,36.133,-45.410,-30.273,-2.930,0
1664561365.329,-69.824,-37.598,-19.531,-29.297,0
1664561365.333,-127.441,-39.062,-18.066,-41.504,0
1664561365.337,-27.832,-40.527,-18.555,-16.602,0
1664561365.340,60.547,-35.156,-20.020,7.324,0
1664561365.344,-40.039,-39.062,-24.414,-20.508,0
1664561365.348,-140.137,-47.363,-23.926,-56.641,0
1664561365.352,-84.473,-48.340,-27.344,-45.898,0
1664561365.356,29.297,-43.945,-29.297,-10.254,0
1664561365.314,-6.348,-42.969,-23.926,-19.043,0
1664561365.318,-116.211,-34.668,-23.926,-53.223,0
1664561365.322,-106.445,-29.785,-31.250,-58.105,0
1664561365.326,23.438,-41.992,-42.480,-19.531,0
1664561365.330,25.879,-48.340,-40.527,-14.648,0
1664561365.334,-96.680,-43.457,-24.414,-52.734,0
1664561365.338,-118.164,-36.621,-24.902,-52.246,0
1664561365.341,-7.324,-29.785,-27.832,-16.113,0
1664561365.345,60.547,-23.438,-17.090,4.395,0
1664561365.349,-50.781,-22.949,-20.996,-25.391,0
1664561365.353,-131.348,-30.762,-27.832,-49.316,0
1664561365.357,-42.969,-30.273,-17.090,-23.438,0
1664561365.314,54.688,-30.273,-12.695,6.348,0
1664561365.318,-19.043,-29.785,-15.625,-17.578,0
1664561365.322,-125.977,-24.414,-19.531,-46.387,0
1664561365.326,-81.543,-23.438,-27.832,-27.344,0
1664561365.330,44.922,-23.438,-27.344,7.324,0
1664561365.334,14.160,-27.832,-24.902,-6.348,0
1664561365.338,-105.957,-27.832,-20.508,-37.109,0
1664561365.341,-103.027,-21.484,-15.625,-30.273,0
1664561365.345,16.602,-20.996,-24.414,4.395,0
1664561365.349,39.062,-26.367,-31.250,3.906,0
1664561365.353,-77.148,-25.879,-22.461,-34.668,0
1664561365.357,-126.465,-28.320,-25.391,-48.828,0
1664561365.314,-17.090,-29.785,-35.645,-25.879,0
1664561365.318,58.105,-25.879,-29.297,-7.812,0
1664561365.322,-43.945,-29.297,-22.949,-34.180,0
1664561365.326,-124.023,-30.273,-23.926,-53.223,0
1664561365.330,-42.969,-25.391,-24.414,-27.832,0
1664561365.334,62.988,-22.461,-24.414,4.883,0
1664561365.338,-4.883,-25.391,-26.367,-16.602,0
1664561365.341,-114.258,-25.879,-29.785,-45.898,0
1664561365.345,-79.590,-31.738,-28.809,-30.273,0
1664561365.349,42.480,-37.109,-26.367,2.441,0
1664561365.353,20.020,-27.344,-29.297,-7.324,0
1664561365.357,-101.562,-29.297,-30.762,-43.945,0
1664561365.316,-111.816,-36.133,-34.180,-46.387,0
1664561365.320,19.531,-42.969,-37.109,-5.371,0
1664561365.324,63.477,-37.598,-26.367,3.906,0
1664561365.328,-70.312,-25.879,-19.531,-41.504,0
1664561365.332,-125.488,-20.996,-23.438,-56.152,0
1664561365.336,-12.207,-19.531,-28.320,-22.949,0
1664561365.340,62.012,-24.414,-30.273,0.000,0
1664561365.343,-37.109,-30.273,-32.715,-25.391,0
1664561365.347,-130.859,-33.203,-34.180,-54.688,0
1664561365.351,-64.453,-34.180,-29.297,-38.574,0
1664561365.355,50.293,-28.320,-25.391,-11.230,0
1664561365.359,-3.906,-23.438,-28.320,-23.926,0
1664561365.316,-121.582,-31.738,-28.809,-60.547,0
1664561365.320,-96.680,-37.109,-26.367,-54.199,0
1664561365.324,32.715,-31.250,-27.344,-13.672,0
1664561365.328,23.438,-35.645,-24.414,-20.508,0
1664561365.332,-104.004,-39.551,-24.414,-57.617,0
1664561365.336,-124.512,-37.109,-22.461,-63.477,0
1664561365.340,-8.301,-38.574,-21.973,-33.691,0
1664561365.343,37.598,-38.574,-30.273,-19.531,0
1664561365.347,-75.684,-40.039,-27.344,-50.293,0
1664561365.351,-145.508,-43.457,-27.344,-64.453,0
1664561365.355,-43.457,-36.133,-31.250,-30.762,0
1664561365.359,57.129,-30.273,-31.250,-4.883,0
1664561365.317,-33.691,-30.273,-29.297,-33.691,0
1664561365.321,-135.254,-29.785,-21.484,-62.988,0
1664561365.325,-80.078,-31.738,-24.414,-46.387,0
1664561365.329,31.250,-38.086,-34.180,-18.066,0
1664561365.333,-11.230,-44.922,-31.250,-33.203,0
1664561365.337,-126.465,-46.875,-28.809,-62.988,0
1664561365.341,-103.027,-43.457,-32.715,-53.711,0
1664561365.344,22.461,-35.156,-39.551,-22.461,0
1664561365.348,21.484,-28.809,-33.691,-18.555,0
1664561365.352,-100.098,-34.180,-28.320,-45.898,0
1664561365.356,-132.324,-39.551,-33.203,-48.828,0
1664561365.360,-8.301,-36.621,-28.320,-15.137,0
1664561365.317,56.152,-26.855,-23.926,0.488,0
1664561365.321,-47.852,-21.484,-22.949,-22.461,0
1664561365.325,-118.652,-30.273,-26.367,-41.504,0
1664561365.329,-32.227,-31.250,-34.180,-19.043,0
1664561365.333,73.242,-28.320,-32.227,12.695,0
1664561365.337,-0.488,-35.645,-26.367,-8.789,0
1664561365.341,-95.703,-32.715,-20.508,-32.715,0
1664561365.344,-43.945,-16.602,-17.090,-15.625,0
1664561365.348,68.848,-11.719,-24.414,11.719,0
1664561365.352,33.691,-20.508,-27.344,2.441,0
1664561365.356,-88.867,-28.809,-33.203,-35.156,0
1664561365.360,-88.867,-32.715,-36.133,-35.156,0
1664561365.318,35.645,-30.762,-29.297,7.324,0
1664561365.322,57.617,-28.809,-22.949,11.230,0
1664561365.326,-64.941,-31.250,-27.344,-28.320,0
1664561365.330,-113.770,-33.203,-37.109,-49.316,0
1664561365.334,-6.348,-34.180,-38.574,-18.066,0
1664561365.338,60.547,-36.621,-33.691,7.324,0
1664561365.342,-50.293,-36.133,-35.156,-24.414,0
1664561365.345,-129.395,-38.086,-32.715,-50.293,0
1664561365.349,-42.969,-42.969,-34.180,-27.832,0
1664561365.353,58.594,-41.504,-43.457,-4.395,0
1664561365.357,-8.789,-32.715,-41.016,-22.949,0
1664561365.361,-110.352,-32.227,-35.645,-50.293,0
1664561365.319,-72.266,-37.598,-25.391,-31.738,0
1664561365.323,48.828,-33.203,-25.391,12.695,0
1664561365.327,31.738,-33.691,-36.133,-1.465,0
1664561365.331,-95.703,-36.133,-40.527,-42.480,0
1664561365.335,-108.398,-28.320,-39.551,-48.340,0
1664561365.339,14.160,-21.484,-40.039,-20.020,0
1664561365.343,43.945,-23.926,-48.340,-12.207,0
1664561365.346,-66.406,-30.273,-47.852,-42.480,0
1664561365.350,-117.188,-32.715,-52.246,-55.664,0
1664561365.354,-11.719,-28.809,-52.246,-28.320,0
1664561365.358,68.848,-27.344,-44.434,-4.883,0
1664561365.362,-35.156,-23.438,-49.316,-31.250,0
1664561365.319,-129.395,-17.578,-44.922,-50.781,0
1664561365.323,-59.082,-27.344,-42.969,-27.832,0
1664561365.327,49.316,-39.062,-49.805,0.000,0
1664561365.331,-8.301,-34.668,-51.270,-16.602,0
1664561365.335,-117.188,-34.180,-55.176,-50.781,0
1664561365.339,-92.773,-26.855,-58.105,-48.828,0
1664561365.343,29.297,-21.484,-61.035,-16.602,0
1664561365.346,30.762,-24.902,-60.547,-11.719,0
1664561365.350,-83.008,-28.320,-54.688,-35.156,0
1664561365.354,-106.445,-29.297,-46.875,-41.504,0
1664561365.358,7.324,-32.227,-44.434,-13.672,0
1664561365.362,52.246,-35.156,-47.363,-1.465,0
1664561365.319,-59.082,-25.879,-43.945,-28.809,0
1664561365.323,-120.117,-28.809,-41.504,-51.270,0
1664561365.327,-21.973,-36.133,-40.039,-20.020,0
1664561365.331,54.688,-34.180,-40.039,4.883,0
1664561365.335,-43.945,-30.273,-43.457,-28.809,0
1664561365.339,-124.512,-22.461,-41.992,-45.410,0
1664561365.343,-62.012,-17.578,-39.551,-27.344,0
1664561365.346,47.852,-22.949,-41.504,-0.488,0
1664561365.350,3.906,-25.879,-45.410,-12.695,0
1664561365.354,-112.793,-26.855,-48.828,-48.828,0
1664561365.358,-94.238,-30.762,-52.734,-43.457,0
1664561365.362,25.879,-36.133,-51.270,-13.184,0
1664561365.320,26.855,-39.062,-46.387,-18.555,0
1664561365.324,-90.332,-39.551,-36.621,-47.852,0
1664561365.328,-118.652,-35.156,-39.551,-56.641,0
1664561365.332,-13.184,-37.109,-51.758,-34.180,0
1664561365.336,41.504,-41.992,-49.805,-23.926,0
1664561365.340,-69.824,-46.875,-45.410,-57.129,0
1664561365.344,-145.020,-50.781,-41.992,-73.242,0
1664561365.347,-51.270,-43.945,-38.086,-43.945,0
1664561365.351,45.410,-40.527,-42.480,-23.438,0
1664561365.355,-38.574,-44.434,-41.504,-55.664,0
1664561365.359,-134.277,-44.434,-39.551,-80.566,0
1664561365.363,-82.031,-39.551,-45.898,-60.547,0
1664561365.320,30.273,-43.457,-43.945,-36.133,0
1664561365.324,-5.371,-50.293,-35.645,-46.387,0
1664561365.328,-126.953,-41.992,-33.691,-77.148,0
1664561365.332,-117.188,-41.016,-33.203,-74.219,0
1664561365.336,11.230,-47.363,-27.344,-32.715,0
1664561365.340,25.391,-41.992,-27.344,-19.043,0
1664561365.344,-100.586,-38.086,-29.297,-51.270,0
1664561365.347,-140.625,-43.945,-29.297,-63.477,0
1664561365.351,-20.508,-43.457,-30.762,-28.809,0
1664561365.355,53.711,-30.762,-25.391,0.000,0
1664561365.359,-57.617,-33.203,-27.832,-27.832,0
1664561365.363,-137.207,-33.691,-32.227,-59.570,0
1664561365.325,-53.223,-32.227,-34.668,-40.527,0
1664561365.329,39.551,-33.691,-36.133,-7.324,0
1664561365.333,-24.414,-32.227,-29.785,-20.020,0
1664561365.337,-127.441,-29.297,-26.367,-52.246,0
1664561365.341,-86.426,-30.762,-29.785,-45.410,0
1664561365.345,41.992,-38.086,-35.156,-10.254,0
1664561365.349,16.602,-37.598,-33.203,-20.508,0
1664561365.352,-111.328,-34.180,-34.668,-54.688,0
1664561365.356,-118.164,-37.109,-47.852,-60.059,0
1664561365.360,14.648,-35.156,-46.387,-25.391,0
1664561365.364,33.203,-26.855,-39.062,-11.719,0
1664561365.368,-93.750,-24.902,-38.086,-47.852,0
1664561365.325,-134.277,-27.344,-35.645,-60.059,0
1664561365.329,-32.227,-37.109,-34.180,-31.250,0
1664561365.333,45.410,-42.969,-35.645,-7.812,0
1664561365.337,-52.734,-40.527,-38.086,-36.621,0
1664561365.341,-144.043,-49.316,-35.156,-60.059,0
1664561365.345,-71.289,-49.805,-34.180,-33.691,0
1664561365.349,46.875,-36.621,-35.156,-0.488,0
1664561365.352,-17.578,-33.203,-34.668,-20.020,0
1664561365.356,-140.137,-43.945,-30.273,-59.082,0
1664561365.360,-105.469,-41.992,-30.762,-46.875,0
1664561365.364,25.391,-40.039,-37.109,-9.766,0
1664561365.368,13.184,-41.504,-35.645,-16.602,0
1664561365.325,-102.539,-32.715,-33.691,-46.875,0
1664561365.329,-110.840,-32.715,-31.250,-43.457,0
1664561365.333,6.836,-32.715,-34.180,-13.184,0
1664561365.337,46.387,-30.762,-38.574,-13.184,0
1664561365.341,-64.941,-28.320,-34.180,-44.434,0
1664561365.345,-125.977,-33.203,-35.645,-53.711,0
1664561365.349,-31.738,-38.574,-41.992,-31.738,0
1664561365.352,52.734,-37.109,-45.410,-11.230,0
1664561365.356,-37.598,-39.551,-42.969,-24.902,0
1664561365.360,-134.277,-37.598,-35.645,-49.805,0
1664561365.364,-67.871,-36.621,-32.227,-36.621,0
1664561365.368,52.246,-31.250,-35.156,-2.441,0
1664561365.325,5.859,-24.414,-39.551,-21.484,0
1664561365.329,-117.188,-24.902,-34.668,-55.664,0
1664561365.333,-101.562,-32.227,-29.785,-48.828,0
1664561365.337,26.855,-36.133,-32.227,-13.184,0
1664561365.341,26.855,-30.762,-28.320,-11.719,0
1664561365.345,-100.586,-28.320,-26.855,-50.781,0
1664561365.349,-123.535,-24.414,-25.879,-53.711,0
1664561365.352,-2.441,-25.879,-26.367,-16.602,0
1664561365.356,51.758,-25.391,-31.250,-2.441,0
1664561365.360,-62.012,-23.438,-30.273,-33.691,0
1664561365.364,-128.906,-28.320,-26.855,-50.781,0
1664561365.368,-38.086,-24.414,-22.949,-20.020,0
1664561365.325,54.199,-15.137,-13.672,13.672,0
1664561365.329,-21.484,-18.066,-13.184,-8.789,0
1664561365.333,-125.000,-26.855,-17.578,-43.457,0
1664561365.337,-80.078,-30.273,-19.531,-35.156,0
1664561365.341,30.762,-29.785,-21.973,-4.883,0
1664561365.345,-12.207,-23.926,-21.484,-22.461,0
1664561365.349,-125.488,-19.531,-17.090,-50.781,0
1664561365.352,-117.676,-28.809,-12.207,-44.434,0
1664561365.356,11.719,-36.621,-8.301,-7.324,0
1664561365.360,36.133,-23.926,-7.812,-2.441,0
1664561365.364,-81.543,-15.137,-9.277,-35.156,0
1664561365.368,-121.582,-17.578,-18.066,-42.969,0
1664561365.325,-13.184,-16.602,-23.438,-11.719,0
1664561365.329,55.176,-15.625,-12.207,7.812,0
1664561365.333,-55.176,-19.531,-4.395,-22.949,0
1664561365.337,-139.648,-29.297,-8.789,-45.898,0
1664561365.341,-54.688,-33.203,-13.184,-22.949,0
1664561365.345,52.734,-35.645,-6.836,9.766,0
1664561365.349,-13.672,-32.715,-3.418,-15.137,0
1664561365.352,-117.188,-19.043,-8.789,-42.480,0
1664561365.356,-76.660,-20.508,-14.648,-20.508,0
1664561365.360,53.711,-39.551,-13.184,19.043,0
1664561365.364,43.457,-35.156,-8.301,20.020,0
1664561365.368,-75.195,-24.414,-15.625,-26.367,0
1664561365.325,-87.402,-25.879,-21.973,-41.992,0
1664561365.329,20.996,-19.531,-26.855,-18.066,0
1664561365.333,46.387,-20.508,-36.621,-9.277,0
1664561365.337,-68.848,-27.344,-40.527,-41.016,0
1664561365.341,-111.816,-23.926,-37.109,-62.500,0
1664561365.345,-5.859,-26.855,-35.645,-31.738,0
1664561365.349,71.289,-24.414,-39.062,-4.883,0
1664561365.352,-27.344,-12.207,-37.109,-37.109,0
1664561365.356,-122.070,-14.648,-35.156,-67.383,0
1664561365.360,-47.852,-24.414,-38.086,-39.062,0
1664561365.364,61.523,-28.809,-38.574,-4.883,0
1664561365.368,-1.953,-25.879,-37.598,-20.996,0
1664561365.330,-108.887,-21.973,-34.668,-49.805,0
1664561365.334,-78.613,-15.137,-31.738,-41.016,0
1664561365.338,45.898,-10.742,-24.414,3.418,0
1664561365.342,38.086,-14.648,-18.066,1.465,0
1664561365.346,-86.426,-19.043,-15.137,-34.668,0
1664561365.350,-92.285,-20.508,-13.672,-31.738,0
1664561365.354,35.645,-20.508,-5.371,10.254,0
1664561365.357,70.312,-16.113,0.488,21.484,0
1664561365.361,-42.969,-6.348,-3.418,-6.836,0
1664561365.365,-101.074,-8.301,-4.395,-22.461,0
1664561365.369,-3.906,-16.113,-11.719,2.441,0
1664561365.373,84.961,-14.648,-11.719,32.227,0
1664561365.374,-8.789,-13.184,0.977,9.277,0
1664561365.378,-97.168,-13.184,-1.465,-13.184,0
1664561365.382,-30.762,-9.766,-13.184,5.371,0
1664561365.386,74.219,-11.230,-13.672,34.180,0
1664561365.390,26.367,-16.602,-18.066,12.695,0
1664561365.394,-87.402,-15.137,-14.648,-19.531,0
1664561365.398,-73.242,-14.648,-13.672,-8.301,0
1664561365.401,50.781,-15.137,-13.184,29.785,0
1664561365.405,57.129,-12.207,-10.742,32.227,0
1664561365.409,-72.266,-13.672,-16.602,-8.789,0
1664561365.413,-104.492,-17.090,-16.602,-18.555,0
1664561365.417,19.531,-16.113,-17.578,10.254,0
1664561365.434,71.777,-17.090,-23.438,20.996,0
1664561365.438,-47.363,-17.090,-25.879,-10.742,0
1664561365.442,-109.375,-14.160,-17.578,-22.461,0
1664561365.446,-14.160,-16.602,-11.230,5.859,0
1664561365.450,74.219,-18.066,-13.184,21.973,0
1664561365.454,-11.719,-20.508,-18.555,-3.906,0
1664561365.458,-114.746,-24.902,-24.414,-34.668,0
1664561365.461,-56.641,-23.926,-17.090,-18.066,0
1664561365.465,68.359,-17.090,-12.207,16.602,0
1664561365.469,28.320,-14.160,-13.672,6.836,0
1664561365.473,-94.238,-22.461,-15.137,-27.832,0
1664561365.477,-86.914,-19.043,-16.113,-25.879,0
1664561365.480,37.598,-18.555,-9.277,8.301,0
1664561365.484,59.570,-22.461,-15.137,11.230,0
1664561365.488,-62.012,-19.531,-24.414,-21.973,0
1664561365.492,-103.516,-24.414,-22.461,-28.809,0
1664561365.496,7.812,-28.809,-22.949,3.906,0
1664561365.500,70.801,-23.926,-21.484,22.949,0
1664561365.504,-36.133,-20.508,-10.742,-4.883,0
1664561365.507,-109.863,-22.949,-5.859,-26.367,0
1664561365.511,-16.113,-14.648,-4.395,4.395,0
1664561365.515,88.379,-12.695,-3.418,34.180,0
1664561365.519,4.883,-20.020,-9.766,0.488,0
1664561365.523,-101.562,-16.113,-5.859,-28.320,0
1664561365.525,-50.293,-16.113,-5.371,-5.859,0
1664561365.529,73.730,-16.113,-11.719,30.762,0
1664561365.533,48.340,-8.789,-16.113,15.625,0
1664561365.537,-79.590,-13.184,-19.043,-31.250,0
1664561365.541,-89.355,-13.184,-20.020,-35.156,0
1664561365.545,32.227,-17.090,-17.090,0.488,0
1664561365.549,45.898,-29.297,-18.555,-2.441,0
1664561365.552,-78.125,-25.391,-18.066,-42.480,0
1664561365.556,-120.117,-23.926,-11.230,-49.805,0
1664561365.560,-9.766,-20.508,-11.719,-18.555,0
1664561365.564,61.523,-20.996,-18.555,-4.395,0
1664561365.568,-46.875,-24.414,-25.391,-34.180,0
1664561365.570,-131.348,-21.484,-21.973,-52.246,0
1664561365.574,-55.664,-33.203,-21.973,-30.273,0
1664561365.578,58.594,-37.598,-26.367,0.977,0
1664561365.582,-11.230,-32.227,-28.320,-20.020,0
1664561365.586,-125.977,-33.691,-24.414,-54.199,0
1664561365.590,-90.820,-36.621,-17.578,-42.969,0
1664561365.594,28.320,-42.480,-18.066,-10.742,0
1664561365.597,10.254,-41.992,-24.414,-16.113,0
1664561365.601,-119.141,-44.434,-30.273,-53.711,0
1664561365.605,-132.812,-41.992,-29.297,-58.105,0
1664561365.609,-1.953,-32.715,-27.344,-16.113,0
1664561365.613,31.738,-31.250,-34.180,-7.812,0
1664561365.615,-92.285,-38.574,-29.297,-46.875,0
1664561365.619,-145.996,-44.922,-26.367,-60.059,0
1664561365.623,-39.551,-46.387,-32.227,-31.250,0
1664561365.627,41.992,-43.945,-31.738,-9.766,0
1664561365.631,-46.875,-36.133,-38.086,-28.320,0
1664561365.635,-129.883,-35.156,-36.133,-48.828,0
1664561365.639,-66.895,-40.527,-33.203,-33.691,0
1664561365.642,45.898,-41.016,-36.133,-5.371,0
1664561365.646,-4.883,-35.645,-32.715,-16.602,0
1664561365.650,-120.117,-30.762,-32.227,-45.898,0
1664561365.654,-94.238,-35.645,-41.016,-48.340,0
1664561365.658,29.297,-42.969,-50.293,-15.625,0
1664561365.660,28.320,-41.504,-50.781,-13.184,0
1664561365.664,-87.891,-40.039,-49.316,-45.410,0
1664561365.668,-108.887,-37.598,-40.527,-52.734,0
1664561365.672,11.230,-32.227,-41.504,-17.090,0
1664561365.676,55.664,-29.785,-54.688,1.465,0
1664561365.680,-61.523,-31.250,-51.270,-32.227,0
1664561365.684,-124.512,-34.668,-48.828,-48.340,0
1664561365.687,-27.344,-31.738,-44.922,-11.230,0
1664561365.691,63.965,-30.762,-44.434,15.625,0
1664561365.695,-21.973,-22.949,-40.039,-9.277,0
1664561365.699,-122.070,-15.137,-36.133,-39.551,0
1664561365.703,-67.383,-27.832,-46.875,-33.691,0
1664561365.720,44.922,-33.691,-52.734,-3.418,0
1664561365.724,2.441,-28.320,-50.293,-13.672,0
1664561365.728,-120.605,-31.250,-50.781,-50.781,0
1664561365.732,-112.793,-37.598,-50.781,-52.246,0
1664561365.736,14.648,-35.645,-50.781,-18.555,0
1664561365.740,22.949,-39.062,-57.129,-15.137,0
1664561365.744,-97.168,-46.875,-54.688,-47.363,0
1664561365.747,-128.906,-47.852,-50.293,-52.734,0
1664561365.751,-12.207,-43.457,-53.711,-17.578,0
1664561365.755,54.688,-33.691,-49.316,2.930,0
1664561365.759,-53.223,-33.203,-41.504,-25.879,0
1664561365.763,-131.836,-41.504,-40.527,-51.270,0
1664561365.750,-44.922,-42.480,-43.945,-29.785,0
1664561365.754,48.828,-42.969,-43.945,0.000,0
1664561365.758,-32.715,-42.480,-43.945,-18.066,0
1664561365.762,-136.719,-37.598,-52.734,-52.734,0
1664561365.766,-92.773,-46.387,-62.988,-41.504,0
1664561365.770,32.715,-47.852,-57.129,-5.859,0
1664561365.774,5.859,-36.621,-45.410,-12.695,0
1664561365.777,-118.164,-40.039,-48.828,-50.293,0
1664561365.781,-117.676,-34.668,-48.828,-49.316,0
1664561365.785,14.648,-32.227,-44.434,-8.789,0
1664561365.789,36.133,-32.715,-47.363,0.977,0
1664561365.793,-95.703,-34.668,-47.852,-32.227,0
1664561365.810,-143.555,-44.922,-52.734,-49.316,0
1664561365.814,-30.273,-45.410,-52.246,-18.066,0
1664561365.818,46.387,-34.668,-40.039,6.836,0
1664561365.822,-57.617,-30.273,-32.715,-26.367,0
1664561365.826,-138.672,-23.926,-36.133,-50.293,0
1664561365.830,-56.641,-15.625,-41.504,-28.809,0
1664561365.834,49.805,-21.973,-45.410,-3.418,0
1664561365.837,-19.531,-31.738,-52.734,-22.949,0
1664561365.841,-140.625,-38.086,-50.293,-52.734,0
1664561365.845,-99.609,-41.504,-53.711,-39.551,0
1664561365.849,38.086,-33.203,-53.711,1.953,0
1664561365.853,18.555,-31.250,-40.527,-4.395,0
1664561365.855,-110.352,-38.574,-46.875,-50.293,0
1664561365.859,-123.535,-40.527,-55.664,-56.641,0
1664561365.863,2.441,-39.551,-53.223,-21.484,0
1664561365.867,42.480,-38.574,-52.734,-8.301,0
1664561365.871,-80.566,-41.992,-52.246,-40.527,0
1664561365.875,-137.695,-40.039,-47.363,-51.758,0
1664561365.879,-25.879,-43.945,-45.898,-9.766,0
1664561365.882,62.500,-49.316,-45.410,14.160,0
1664561365.886,-38.574,-34.180,-37.109,-25.879,0
1664561365.890,-119.629,-25.391,-35.645,-50.781,0
1664561365.894,-53.223,-35.156,-42.969,-41.016,0
1664561365.898,37.109,-39.062,-50.293,-17.578,0
1664561365.900,-7.324,-28.320,-47.852,-21.484,0
1664561365.904,-119.629,-26.367,-44.434,-54.199,0
1664561365.908,-99.121,-30.273,-49.316,-47.852,0
1664561365.912,29.297,-26.367,-44.922,-12.695,0
1664561365.916,23.926,-33.203,-39.551,-11.719,0
1664561365.920,-103.516,-35.645,-38.574,-44.434,0
1664561365.924,-131.348,-38.574,-43.457,-55.664,0
1664561365.927,-6.836,-41.504,-40.527,-20.020,0
1664561365.931,41.504,-36.621,-46.875,-2.930,0
1664561365.935,-76.660,-35.645,-52.734,-37.109,0
1664561365.939,-131.348,-28.809,-42.969,-52.246,0
1664561365.943,-35.645,-20.020,-44.922,-22.949,0
1664561365.945,53.223,-16.602,-38.086,2.930,0
1664561365.949,-33.203,-28.320,-40.039,-25.391,0
1664561365.953,-134.277,-34.180,-51.270,-51.270,0
1664561365.957,-64.941,-32.715,-42.969,-24.414,0
1664561365.961,50.293,-33.691,-34.180,11.230,0
1664561365.965,-0.488,-24.902,-37.598,-10.254,0
1664561365.969,-110.352,-25.391,-41.992,-47.852,0
1664561365.972,-95.703,-23.438,-46.387,-34.180,0
1664561365.976,28.320,-20.996,-50.781,9.277,0
1664561365.980,34.180,-29.785,-46.875,4.883,0
1664561365.984,-90.332,-35.645,-52.246,-39.551,0
1664561365.988,-121.094,-29.785,-45.898,-47.363,0
1664561365.990,-1.465,-29.297,-31.738,-9.766,0
1664561365.994,51.758,-39.551,-36.133,0.977,0
1664561365.998,-56.641,-31.250,-38.086,-30.762,0
1664561366.002,-122.070,-26.855,-30.762,-48.340,0
1664561366.006,-39.062,-40.039,-30.273,-27.344,0
1664561366.010,52.246,-37.109,-35.156,-0.488,0
1664561366.014,-30.762,-30.762,-37.598,-22.461,0
1664561366.017,-136.230,-38.086,-42.969,-49.316,0
1664561366.021,-90.820,-38.574,-43.457,-29.297,0
1664561366.025,29.297,-32.715,-37.109,9.277,0
1664561366.029,0.000,-35.156,-33.203,0.000,0
1664561366.033,-116.699,-39.062,-29.785,-36.621,0
1664561366.035,-120.605,-41.992,-35.156,-44.434,0
1664561366.039,7.812,-36.133,-32.715,-8.789,0
1664561366.043,41.016,-27.832,-19.043,-0.488,0
1664561366.047,-89.355,-29.297,-14.160,-41.016,0
1664561366.051,-124.512,-30.762,-23.438,-53.711,0
1664561366.055,-3.906,-23.926,-34.668,-18.555,0
1664561366.059,45.898,-20.996,-38.086,-2.930,0
1664561366.062,-60.547,-27.832,-40.527,-31.250,0
1664561366.066,-139.648,-31.250,-40.039,-53.711,0
1664561366.070,-60.059,-33.691,-36.621,-31.738,0
1664561366.074,54.199,-33.203,-29.785,0.488,0
1664561366.078,-12.207,-29.785,-22.949,-21.973,0
1664561366.080,-127.441,-31.250,-30.273,-59.082,0
1664561366.084,-91.309,-33.203,-41.504,-48.340,0
1664561366.088,35.645,-26.855,-43.945,-14.648,0
1664561366.092,20.020,-24.414,-42.480,-21.973,0
1664561366.096,-104.980,-34.180,-39.551,-56.641,0
1664561366.100,-116.211,-30.273,-36.621,-54.688,0
1664561366.104,5.371,-20.996,-35.156,-16.113,0
1664561366.107,42.969,-17.578,-30.273,-2.441,0
1664561366.111,-75.195,-20.996,-28.320,-34.668,0
1664561366.115,-134.277,-28.809,-41.992,-52.734,0
1664561366.119,-30.273,-31.250,-44.922,-20.020,0
1664561366.123,55.176,-29.785,-34.668,0.000,0
1664561366.125,-43.457,-26.855,-29.785,-28.809,0
1664561366.129,-138.672,-29.297,-31.738,-51.758,0
1664561366.133,-67.383,-29.297,-36.133,-37.109,0
1664561366.137,42.969,-33.203,-34.668,-10.742,0
1664561366.141,-14.160,-35.156,-29.297,-18.066,0
1664561366.145,-120.117,-28.809,-24.902,-41.992,0
1664561366.149,-83.496,-29.297,-24.414,-27.832,0
1664561366.152,31.250,-30.762,-15.625,7.324,0
1664561366.156,11.230,-29.297,-9.766,-5.859,0
1664561366.160,-108.887,-32.227,-17.578,-45.410,0
1664561366.164,-131.348,-23.926,-22.949,-49.805,0
1664561366.168,-9.277,-16.113,-21.484,-10.742,0
1664561366.215,37.598,-36.133,-21.484,2.930,0
1664561366.219,-76.172,-39.062,-21.973,-32.227,0
1664561366.223,-130.371,-25.391,-21.973,-46.387,0
1664561366.227,-32.227,-20.020,-27.344,-17.578,0
1664561366.231,52.246,-15.137,-29.297,3.906,0
1664561366.235,-31.738,-20.996,-31.738,-19.043,0
1664561366.239,-123.047,-29.785,-30.762,-44.922,0
1664561366.242,-63.965,-27.344,-22.461,-25.879,0
1664561366.246,53.223,-29.785,-18.555,8.301,0
1664561366.250,14.160,-27.832,-19.043,-2.930,0
1664561366.254,-106.445,-24.414,-21.484,-40.039,0
1664561366.258,-92.285,-21.973,-23.438,-32.227,0
1664561366.230,37.109,-16.113,-23.438,11.719,0
1664561366.234,45.410,-15.137,-24.414,9.277,0
1664561366.238,-79.102,-20.020,-28.809,-33.203,0
1664561366.242,-109.863,-25.879,-21.973,-37.598,0
1664561366.246,2.930,-27.344,-11.719,-3.418,0
1664561366.250,59.570,-30.273,-17.578,4.395,0
1664561366.254,-55.664,-35.645,-30.273,-27.832,0
1664561366.257,-134.766,-35.645,-37.598,-52.246,0
1664561366.261,-33.203,-32.227,-32.227,-21.973,0
1664561366.265,65.918,-31.738,-35.156,10.254,0
1664561366.269,-19.043,-31.250,-43.457,-15.137,0
1664561366.273,-116.699,-31.250,-36.133,-44.434,0
1664561366.275,-70.312,-31.250,-29.785,-33.203,0
1664561366.279,49.316,-24.902,-33.203,-4.395,0
1664561366.283,16.602,-28.809,-37.598,-17.090,0
1664561366.287,-105.469,-33.203,-41.504,-47.852,0
1664561366.291,-96.191,-30.273,-35.645,-39.062,0
1664561366.295,21.484,-32.227,-40.527,-2.930,0
1664561366.299,38.574,-28.320,-45.410,-2.930,0
1664561366.302,-82.031,-24.902,-32.227,-37.109,0
1664561366.306,-132.812,-22.949,-28.809,-47.363,0
1664561366.310,-16.113,-19.043,-32.715,-18.066,0
1664561366.314,54.688,-20.996,-30.273,2.441,0
1664561366.318,-61.035,-28.809,-28.320,-26.367,0
1664561366.335,-145.996,-31.250,-25.879,-58.594,0
1664561366.339,-62.988,-35.645,-28.809,-38.086,0
1664561366.343,46.875,-44.922,-28.809,-1.953,0
1664561366.347,-14.648,-41.992,-28.320,-19.531,0
1664561366.351,-127.930,-32.227,-33.203,-49.805,0
1664561366.355,-98.145,-26.367,-32.715,-40.039,0
1664561366.359,23.438,-26.855,-36.133,-8.301,0
1664561366.362,10.254,-26.367,-35.156,-11.230,0
1664561366.366,-116.699,-31.738,-39.062,-40.039,0
1664561366.370,-132.812,-39.551,-45.898,-48.828,0
1664561366.374,7.812,-33.203,-38.574,-14.160,0
1664561366.378,43.945,-26.367,-31.250,3.906,0
1664561366.364,-81.055,-19.531,-30.762,-28.809,0
1664561366.368,-125.488,-22.461,-33.203,-49.316,0
1664561366.372,-19.043,-32.227,-26.367,-18.066,0
1664561366.376,56.641,-39.062,-23.926,3.906,0
1664561366.380,-40.039,-42.969,-30.273,-23.926,0
1664561366.384,-124.512,-38.574,-29.785,-53.223,0
1664561366.388,-56.641,-34.668,-33.691,-40.527,0
1664561366.391,50.293,-39.551,-31.738,-6.836,0
1664561366.395,-0.977,-34.668,-26.855,-20.020,0
1664561366.399,-109.863,-22.949,-25.879,-47.852,0
1664561366.403,-88.379,-32.715,-21.973,-39.062,0
1664561366.407,36.133,-36.621,-19.043,-2.930,0
1664561366.409,25.391,-34.180,-29.297,-9.766,0
1664561366.413,-104.980,-31.738,-33.691,-50.781,0
1664561366.417,-126.953,-29.785,-28.320,-60.059,0
1664561366.421,-4.395,-28.809,-28.320,-28.809,0
1664561366.425,46.387,-38.086,-30.273,-9.277,0
1664561366.429,-68.359,-39.062,-22.461,-38.086,0
1664561366.433,-130.859,-27.344,-19.531,-53.711,0
1664561366.436,-36.621,-35.645,-22.949,-21.484,0
1664561366.440,51.270,-33.691,-16.602,6.836,0
1664561366.444,-34.668,-23.438,-13.672,-15.625,0
1664561366.448,-127.930,-25.391,-18.555,-42.969,0
1664561366.452,-63.477,-25.391,-24.902,-22.461,0
1664561366.454,45.410,-19.531,-29.785,11.230,0
1664561366.458,-1.953,-22.461,-28.809,-2.930,0
1664561366.462,-117.676,-31.250,-29.297,-39.551,0
1664561366.466,-99.121,-31.738,-21.973,-36.621,0
1664561366.470,33.691,-21.973,-21.973,-0.488,0
1664561366.474,34.180,-24.902,-26.367,-8.789,0
1664561366.478,-87.891,-32.227,-19.043,-43.457,0
1664561366.481,-123.047,-25.391,-24.414,-48.828,0
1664561366.485,-2.441,-22.461,-24.902,-12.207,0
1664561366.489,64.453,-25.879,-15.625,7.812,0
1664561366.493,-54.199,-26.855,-14.160,-26.855,0
1664561366.497,-127.930,-23.438,-20.508,-49.316,0
1664561366.499,-31.250,-18.555,-27.344,-20.996,0
1664561366.503,69.824,-18.066,-25.391,11.230,0
1664561366.507,-9.766,-17.090,-13.184,-5.371,0
1664561366.511,-115.234,-26.855,-9.277,-41.016,0
1664561366.515,-63.965,-31.738,-12.207,-34.668,0
1664561366.519,54.199,-26.367,-13.672,1.465,0
1664561366.523,11.230,-31.738,-29.297,-10.742,0
1664561366.526,-121.094,-33.691,-39.551,-50.781,0
1664561366.530,-121.582,-29.785,-25.391,-52.246,0
1664561366.534,15.137,-27.832,-13.184,-9.766,0
1664561366.538,39.551,-25.391,-13.184,-2.930,0
1664561366.542,-91.309,-23.926,-21.484,-47.363,0
1664561366.560,-126.465,-29.785,-19.531,-55.176,0
1664561366.564,-3.906,-28.809,-12.207,-6.836,0
1664561366.568,65.918,-28.809,-24.902,22.461,0
1664561366.572,-33.203,-24.902,-31.250,-8.789,0
1664561366.576,-119.141,-22.461,-24.414,-47.363,0
1664561366.580,-41.504,-31.250,-25.391,-29.785,0
1664561366.584,70.801,-31.250,-25.879,7.812,0
1664561366.587,8.301,-22.949,-25.879,-8.789,0
1664561366.591,-105.469,-12.695,-24.902,-39.062,0
1664561366.595,-74.219,-16.602,-17.578,-28.320,0
1664561366.599,42.969,-29.785,-25.391,1.953,0
1664561366.603,22.949,-33.691,-41.016,-7.812,0
1664561366.620,-95.215,-29.297,-40.527,-41.992,0
1664561366.624,-97.656,-25.879,-35.156,-38.574,0
1664561366.628,30.762,-20.996,-34.668,0.000,0
1664561366.632,63.965,-16.113,-32.227,7.324,0
1664561366.636,-56.641,-21.973,-32.715,-24.414,0
1664561366.640,-115.234,-28.809,-30.273,-36.621,0
1664561366.644,-16.113,-28.320,-36.133,-17.578,0
1664561366.647,67.871,-28.809,-41.016,5.859,0
1664561366.651,-31.250,-26.367,-39.551,-11.230,0
1664561366.655,-117.676,-22.461,-43.945,-35.156,0
1664561366.659,-38.574,-23.438,-44.922,-15.625,0
1664561366.663,67.383,-32.715,-45.410,9.277,0
1664561366.650,7.812,-31.738,-39.551,-5.859,0
1664561366.654,-101.562,-33.203,-31.738,-32.227,0
1664561366.658,-68.359,-37.109,-41.016,-28.809,0
1664561366.662,57.617,-26.855,-43.945,9.766,0
1664561366.666,40.039,-24.902,-42.480,14.160,0
1664561366.670,-88.867,-31.250,-45.410,-26.367,0
1664561366.674,-111.816,-37.109,-50.781,-41.992,0
1664561366.677,5.859,-43.945,-59.082,-10.742,0
1664561366.681,51.758,-39.062,-50.293,5.859,0
1664561366.685,-61.035,-35.156,-38.574,-22.461,0
