timestamps,TP9,AF7,AF8,TP10
1667327391.837,74.219,-73.730,-89.355,344.727
1667327391.841,114.258,-83.496,-102.539,597.168
1667327391.845,-119.629,-102.051,-133.301,-353.516
1667327391.849,-191.406,-91.309,-125.000,-760.254
1667327391.853,7.812,-74.219,-110.840,32.715
1667327391.857,145.996,-75.684,-114.746,672.363
1667327391.861,-58.594,-83.008,-128.418,-112.793
1667327391.864,-205.078,-82.031,-130.859,-826.660
1667327391.868,-42.969,-79.102,-114.746,-208.984
1667327391.872,142.090,-73.730,-98.145,649.414
1667327391.876,7.324,-73.242,-108.887,175.781
1667327391.880,-196.777,-78.125,-121.094,-741.211
1667327391.907,-107.422,-79.590,-119.141,-465.820
1667327391.911,116.699,-73.242,-102.051,508.301
1667327391.915,83.984,-68.359,-107.422,458.984
1667327391.919,-150.879,-69.336,-136.719,-558.594
1667327391.923,-158.203,-78.613,-139.160,-671.875
1667327391.927,60.547,-84.961,-117.188,262.207
1667327391.931,118.652,-76.172,-104.980,614.746
1667327391.934,-117.676,-76.660,-123.047,-327.148
1667327391.938,-192.383,-78.613,-137.695,-783.691
1667327391.942,10.254,-82.520,-123.535,19.531
1667327391.946,148.438,-72.266,-93.262,695.801
1667327391.950,-48.340,-71.289,-105.469,-47.852
1667327391.953,-206.543,-84.961,-126.465,-808.105
1667327391.957,-53.711,-74.219,-109.375,-270.020
1667327391.961,147.461,-62.012,-100.098,624.023
1667327391.965,31.250,-76.172,-121.582,250.977
1667327391.969,-184.570,-88.379,-132.812,-705.566
1667327391.973,-111.816,-83.984,-124.512,-510.254
1667327391.977,112.305,-69.824,-102.051,467.285
1667327391.980,98.633,-72.754,-106.934,515.137
1667327391.984,-133.789,-92.285,-137.207,-485.352
1667327391.988,-172.363,-91.797,-131.348,-708.984
1667327391.992,27.832,-66.406,-103.027,164.551
1667327391.996,123.535,-56.152,-100.098,629.395
1667327391.997,-92.285,-70.312,-123.535,-251.953
1667327392.001,-196.777,-72.266,-133.301,-811.035
1667327392.005,-13.672,-60.059,-117.188,-89.355
1667327392.009,148.926,-57.129,-109.863,672.852
1667327392.013,-24.414,-74.219,-140.137,33.691
1667327392.017,-200.195,-84.961,-151.855,-784.180
1667327392.021,-74.707,-74.707,-122.070,-329.102
1667327392.024,139.160,-65.918,-97.656,598.145
1667327392.028,48.340,-71.289,-105.957,331.543
1667327392.032,-185.547,-77.148,-126.465,-670.898
1667327392.036,-140.625,-74.707,-128.418,-582.520
1667327392.040,84.961,-68.359,-115.723,393.066
1667327392.027,100.586,-84.961,-132.324,581.055
1667327392.031,-145.996,-95.703,-145.508,-419.434
1667327392.035,-188.477,-82.031,-126.953,-749.023
1667327392.039,36.133,-70.312,-114.258,123.047
1667327392.043,145.996,-61.523,-105.469,655.762
1667327392.047,-76.660,-74.707,-123.047,-189.941
1667327392.051,-202.637,-86.426,-135.254,-808.594
1667327392.054,-29.297,-82.520,-121.094,-134.766
1667327392.058,140.137,-69.336,-104.004,674.316
1667327392.062,-18.555,-70.801,-113.770,107.910
1667327392.066,-208.008,-89.844,-130.859,-777.832
1667327392.070,-89.844,-106.445,-129.883,-388.184
1667327392.072,130.859,-84.961,-103.516,577.637
1667327392.076,61.523,-71.289,-107.910,394.043
1667327392.080,-173.340,-92.773,-127.930,-616.699
1667327392.084,-142.578,-90.332,-111.816,-625.488
1667327392.088,83.984,-75.195,-94.238,338.379
1667327392.092,114.258,-73.730,-99.121,603.027
1667327392.096,-134.277,-84.961,-119.141,-377.930
1667327392.099,-196.777,-100.586,-127.441,-747.070
1667327392.103,2.441,-92.773,-109.375,63.477
1667327392.107,122.070,-78.125,-102.539,645.996
1667327392.111,-85.449,-93.750,-128.906,-127.441
1667327392.115,-225.098,-102.539,-130.859,-809.570
1667327392.117,-62.500,-83.984,-108.398,-219.727
1667327392.121,125.000,-76.660,-104.980,629.395
1667327392.125,-15.137,-93.750,-123.535,172.363
1667327392.129,-218.750,-100.586,-135.742,-768.555
1667327392.133,-119.141,-97.656,-124.023,-467.285
1667327392.137,106.445,-94.238,-106.934,527.344
1667327392.141,61.035,-104.492,-124.023,446.777
1667327392.144,-175.781,-107.910,-146.484,-564.941
1667327392.148,-168.945,-91.309,-128.418,-677.246
1667327392.152,51.758,-90.332,-111.328,262.207
1667327392.156,105.469,-86.914,-112.305,611.816
1667327392.160,-129.883,-87.891,-128.418,-326.660
1667327392.162,-207.031,-89.844,-124.023,-786.133
1667327392.166,-9.766,-87.891,-103.516,-4.395
1667327392.170,138.184,-85.449,-102.539,675.781
1667327392.174,-55.664,-88.867,-121.094,-52.246
1667327392.178,-216.309,-95.703,-129.883,-812.988
1667327392.182,-67.871,-96.191,-116.699,-270.020
1667327392.186,139.648,-90.332,-104.980,646.484
1667327392.189,24.414,-90.332,-115.234,266.113
1667327392.193,-204.102,-89.844,-127.930,-718.750
1667327392.197,-125.000,-88.867,-119.141,-519.531
1667327392.201,107.910,-80.566,-101.074,473.633
1667327392.205,83.496,-71.289,-102.539,506.348
1667327392.207,-155.762,-85.449,-130.371,-514.160
1667327392.211,-162.598,-92.285,-126.465,-697.754
1667327392.215,54.199,-84.961,-100.586,209.473
1667327392.219,117.676,-76.660,-95.703,638.184
1667327392.223,-109.863,-87.402,-117.188,-254.883
1667327392.227,-204.102,-102.539,-132.812,-779.785
1667327392.231,-26.367,-93.262,-116.211,-54.688
1667327392.234,123.535,-76.660,-97.168,674.316
1667327392.238,-53.711,-85.938,-118.164,20.508
1667327392.242,-230.957,-99.121,-129.395,-799.316
1667327392.246,-99.609,-94.238,-105.469,-338.867
1667327392.250,114.746,-80.078,-87.891,584.473
1667327392.267,37.109,-83.984,-98.145,315.430
1667327392.271,-191.895,-93.750,-119.629,-673.828
1667327392.275,-150.879,-84.961,-112.305,-581.055
1667327392.279,72.266,-78.125,-90.820,394.043
1667327392.283,79.590,-86.914,-104.004,544.434
1667327392.287,-158.203,-102.539,-127.441,-444.336
1667327392.291,-199.707,-100.586,-121.094,-736.328
1667327392.294,17.090,-87.891,-101.562,128.906
1667327392.298,126.465,-81.543,-98.145,654.297
1667327392.302,-77.148,-102.051,-123.535,-172.363
1667327392.306,-197.266,-94.727,-115.723,-789.062
1667327392.310,-35.645,-72.266,-93.750,-145.508
1667327392.327,144.043,-83.496,-98.145,660.645
1667327392.331,-11.719,-92.285,-115.234,103.027
1667327392.335,-208.008,-92.285,-124.023,-781.738
1667327392.339,-101.074,-90.332,-114.746,-413.086
1667327392.343,121.094,-83.008,-99.121,558.594
1667327392.347,60.059,-90.820,-109.375,400.879
1667327392.351,-183.105,-98.145,-121.582,-623.047
1667327392.354,-158.203,-88.379,-107.422,-642.578
1667327392.358,65.918,-93.262,-103.516,320.312
1667327392.362,92.285,-97.168,-106.934,575.195
1667327392.366,-149.414,-96.191,-115.234,-407.227
1667327392.370,-206.543,-104.492,-124.023,-778.320
1667327392.357,-1.465,-90.332,-102.539,55.664
1667327392.361,121.094,-80.566,-88.379,665.039
1667327392.365,-81.543,-91.797,-103.027,-110.352
1667327392.369,-220.215,-96.191,-117.188,-799.805
1667327392.373,-56.152,-84.473,-110.840,-190.918
1667327392.377,138.672,-73.242,-96.680,669.434
1667327392.381,0.977,-78.613,-104.980,192.383
1667327392.384,-207.520,-86.914,-116.699,-730.957
1667327392.388,-119.141,-89.355,-107.422,-455.566
1667327392.392,97.168,-76.660,-81.055,505.859
1667327392.396,62.500,-68.848,-83.008,454.590
1667327392.400,-165.527,-82.520,-120.605,-554.688
1667327392.402,-156.738,-99.609,-130.371,-634.766
1667327392.406,57.129,-76.172,-91.309,291.992
1667327392.410,113.281,-62.988,-90.820,617.188
1667327392.414,-107.422,-86.914,-130.371,-312.988
1667327392.418,-186.523,-87.402,-125.977,-774.414
1667327392.422,-3.906,-86.914,-108.398,-5.859
1667327392.426,129.883,-82.031,-95.703,666.992
1667327392.429,-59.082,-96.191,-114.746,-42.480
1667327392.433,-218.750,-109.375,-129.883,-795.410
1667327392.437,-77.637,-82.520,-104.492,-270.996
1667327392.441,128.906,-74.219,-97.656,632.812
1667327392.445,16.113,-86.426,-117.188,260.254
1667327392.447,-204.102,-88.867,-132.324,-703.125
1667327392.451,-134.277,-80.078,-122.559,-521.973
1667327392.455,96.191,-75.684,-106.934,445.801
1667327392.459,79.590,-83.008,-116.699,491.211
1667327392.463,-174.805,-93.262,-138.672,-522.461
1667327392.467,-191.406,-100.098,-138.672,-715.332
1667327392.471,26.367,-97.656,-121.582,178.223
1667327392.474,111.328,-102.051,-132.324,631.348
1667327392.478,-114.258,-104.004,-138.672,-257.812
1667327392.482,-215.332,-90.820,-119.629,-811.035
1667327392.486,-29.785,-84.473,-114.746,-76.660
1667327392.490,126.465,-74.707,-103.516,672.852
1667327392.507,-53.223,-82.520,-110.352,24.902
1667327392.511,-232.422,-94.727,-127.930,-798.340
1667327392.515,-94.238,-93.262,-117.188,-337.402
1667327392.519,111.816,-87.402,-99.121,600.098
1667327392.523,21.484,-89.355,-112.793,299.316
1667327392.527,-194.824,-91.309,-129.395,-703.613
1667327392.531,-144.043,-97.168,-128.418,-566.406
1667327392.534,85.449,-87.402,-110.840,403.320
1667327392.538,98.633,-68.848,-107.422,527.344
1667327392.542,-140.137,-83.984,-134.277,-461.914
1667327392.546,-181.641,-88.867,-141.602,-750.000
1667327392.550,31.250,-78.613,-124.512,116.699
1667327392.537,124.512,-82.031,-106.445,647.461
1667327392.541,-98.145,-96.680,-127.930,-197.754
1667327392.545,-215.820,-101.562,-136.230,-806.152
1667327392.549,-45.898,-93.262,-110.352,-147.461
1667327392.553,126.953,-78.613,-94.727,644.043
1667327392.557,-39.551,-87.402,-121.094,89.844
1667327392.561,-235.840,-100.098,-140.137,-790.527
1667327392.564,-121.582,-84.473,-117.676,-425.781
1667327392.568,95.215,-72.754,-100.586,529.785
1667327392.572,27.832,-76.660,-112.793,365.234
1667327392.576,-207.031,-101.562,-134.766,-619.629
1667327392.580,-186.035,-95.703,-115.234,-631.348
1667327392.582,43.945,-68.848,-87.891,311.035
1667327392.586,99.609,-76.660,-100.098,591.797
1667327392.590,-126.465,-89.844,-121.582,-365.723
1667327392.594,-184.082,-75.684,-121.094,-752.930
1667327392.598,21.484,-62.500,-106.934,53.711
1667327392.602,152.344,-75.684,-108.887,678.223
1667327392.606,-57.129,-89.844,-115.234,-98.145
1667327392.609,-200.684,-83.984,-104.004,-805.176
1667327392.613,-30.273,-75.684,-92.285,-185.059
1667327392.617,164.062,-74.219,-80.566,680.176
1667327392.621,22.949,-82.520,-94.727,203.125
1667327392.625,-182.129,-89.355,-116.211,-724.121
1667327392.642,-87.891,-82.520,-106.934,-431.641
1667327392.646,140.137,-68.848,-90.332,542.969
1667327392.650,103.516,-69.824,-102.051,481.445
1667327392.654,-139.648,-81.543,-117.676,-536.621
1667327392.658,-131.348,-90.332,-118.652,-640.625
1667327392.662,86.426,-83.008,-101.074,288.086
1667327392.666,139.648,-80.078,-91.797,627.441
1667327392.669,-93.262,-87.891,-112.793,-309.082
1667327392.673,-174.805,-86.426,-118.652,-764.648
1667327392.677,21.973,-92.285,-106.934,34.180
1667327392.681,158.691,-78.125,-95.215,700.195
1667327392.685,-39.062,-72.754,-111.816,-48.828
1667327392.687,-190.918,-84.473,-126.953,-793.457
1667327392.691,-40.039,-75.684,-101.074,-249.512
1667327392.695,156.250,-59.570,-76.660,645.996
1667327392.699,33.203,-70.801,-98.633,269.043
1667327392.703,-184.082,-97.656,-119.141,-695.801
1667327392.707,-103.516,-93.750,-103.027,-503.906
1667327392.711,124.023,-73.730,-83.496,468.262
1667327392.714,110.840,-73.730,-95.215,510.742
1667327392.718,-125.977,-96.191,-125.000,-477.051
1667327392.722,-155.273,-89.844,-121.094,-671.875
1667327392.726,52.246,-60.547,-90.820,204.102
1667327392.730,145.996,-62.500,-90.332,642.578
1667327392.747,-83.008,-79.590,-117.676,-252.441
1667327392.751,-193.359,-87.891,-123.535,-794.922
1667327392.755,-6.836,-79.102,-105.957,-70.801
1667327392.759,158.203,-71.289,-104.492,674.805
1667327392.763,-16.602,-82.031,-118.652,31.738
1667327392.767,-194.336,-90.820,-123.047,-785.156
1667327392.771,-72.266,-90.332,-112.793,-329.590
1667327392.774,135.742,-77.637,-96.680,587.402
1667327392.778,54.199,-88.379,-119.629,333.496
1667327392.782,-176.270,-95.215,-132.324,-652.832
1667327392.786,-121.582,-76.172,-100.586,-573.242
1667327392.790,116.211,-66.895,-88.867,415.039
1667327392.777,118.652,-66.895,-94.727,562.012
1667327392.781,-140.625,-71.289,-112.793,-456.055
1667327392.785,-187.988,-73.730,-125.000,-756.348
1667327392.789,41.016,-67.383,-107.910,126.953
1667327392.793,160.156,-60.547,-95.215,667.480
1667327392.797,-59.082,-70.801,-114.258,-166.992
1667327392.801,-180.664,-76.660,-123.535,-780.762
1667327392.804,-8.789,-77.148,-116.699,-110.840
1667327392.808,157.715,-70.312,-108.398,683.594
1667327392.812,-7.324,-78.125,-122.070,101.562
1667327392.816,-194.824,-84.961,-129.395,-779.785
1667327392.820,-70.801,-86.426,-125.977,-375.488
1667327392.822,140.625,-76.172,-112.793,583.496
1667327392.826,69.824,-61.523,-105.469,395.508
1667327392.830,-155.273,-78.613,-125.977,-606.445
1667327392.834,-129.395,-87.891,-122.559,-611.328
1667327392.838,97.656,-69.824,-93.262,341.309
1667327392.842,140.625,-64.941,-89.844,599.609
1667327392.846,-108.398,-77.637,-118.164,-365.723
1667327392.849,-178.223,-93.750,-133.301,-729.492
1667327392.853,15.625,-80.078,-103.516,81.543
1667327392.857,133.301,-55.176,-92.285,663.574
1667327392.861,-61.523,-74.707,-129.883,-111.328
1667327392.865,-203.613,-85.449,-131.348,-796.875
1667327392.867,-58.105,-78.125,-103.516,-210.449
1667327392.871,135.742,-72.754,-92.285,639.160
1667327392.875,8.789,-79.590,-112.793,186.523
1667327392.879,-201.172,-86.426,-124.512,-737.793
1667327392.883,-110.840,-82.520,-111.816,-457.520
1667327392.887,114.258,-74.219,-96.191,513.672
1667327392.891,78.125,-78.125,-112.305,465.332
1667327392.894,-166.016,-89.844,-130.859,-549.805
1667327392.898,-167.969,-71.289,-113.281,-672.363
1667327392.902,54.688,-62.500,-94.238,263.184
1667327392.906,110.352,-70.312,-96.680,610.352
1667327392.910,-124.512,-75.684,-111.816,-331.543
1667327392.912,-208.008,-76.660,-112.305,-801.758
1667327392.916,-2.930,-74.219,-104.492,8.301
1667327392.920,120.117,-74.707,-99.121,604.004
1667327392.924,-81.055,-79.590,-106.934,-153.320
1667327392.928,-215.820,-86.914,-118.164,-798.828
1667327392.932,-74.219,-88.379,-110.840,-248.535
1667327392.936,127.930,-90.332,-102.539,676.270
1667327392.939,6.348,-92.285,-112.793,269.531
1667327392.943,-218.262,-78.613,-125.000,-717.773
1667327392.947,-137.695,-74.219,-129.883,-514.160
1667327392.951,95.703,-68.359,-98.633,458.984
1667327392.955,80.078,-60.059,-95.703,496.582
1667327392.957,-162.109,-76.660,-132.324,-502.930
1667327392.961,-181.152,-84.961,-131.348,-699.219
1667327392.965,38.086,-73.730,-102.539,196.777
1667327392.969,119.141,-69.824,-103.027,630.371
1667327392.973,-105.957,-85.449,-132.812,-258.301
1667327392.977,-205.078,-102.051,-142.578,-773.926
1667327392.981,-26.855,-90.332,-121.582,-57.129
1667327392.984,132.324,-70.312,-102.539,665.527
1667327392.988,-36.621,-77.148,-125.488,16.602
1667327392.992,-207.520,-89.844,-142.578,-800.293
1667327392.996,-79.102,-76.660,-132.812,-336.914
1667327393.000,131.348,-66.406,-115.723,590.820
1667327393.023,40.527,-83.984,-116.699,318.848
1667327393.027,-187.988,-98.633,-128.906,-666.016
1667327393.031,-142.090,-84.961,-115.234,-575.195
1667327393.035,79.590,-63.477,-91.797,386.230
1667327393.039,93.750,-67.383,-101.562,539.062
1667327393.043,-142.090,-87.891,-129.883,-440.918
1667327393.047,-188.477,-90.820,-137.695,-737.305
1667327393.050,14.160,-73.242,-115.234,118.164
1667327393.054,115.234,-63.477,-105.957,645.996
1667327393.058,-97.656,-76.660,-128.906,-184.082
1667327393.062,-215.820,-81.055,-121.582,-801.270
1667327393.066,-40.527,-67.383,-99.121,-149.902
1667327393.062,141.113,-67.383,-104.492,658.203
1667327393.066,-18.066,-81.543,-128.906,111.328
1667327393.070,-223.633,-82.031,-135.254,-777.832
1667327393.074,-103.027,-72.266,-122.070,-394.043
1667327393.078,116.211,-68.359,-100.098,535.156
1667327393.082,44.434,-76.172,-108.887,353.027
1667327393.086,-181.641,-82.031,-125.977,-612.305
1667327393.089,-161.133,-82.031,-120.605,-626.465
1667327393.093,72.266,-78.125,-101.074,337.402
1667327393.097,110.352,-75.195,-105.469,599.609
1667327393.101,-136.230,-78.125,-130.371,-379.883
1667327393.105,-196.289,-77.637,-131.836,-767.090
1667327393.107,8.301,-69.336,-113.281,53.711
1667327393.111,131.836,-64.941,-104.004,655.273
1667327393.115,-75.195,-68.848,-112.793,-124.512
1667327393.119,-212.402,-72.754,-119.629,-803.711
1667327393.123,-51.270,-70.312,-107.910,-205.566
1667327393.127,139.648,-60.547,-88.379,651.855
1667327393.131,9.277,-58.594,-102.051,187.012
1667327393.134,-200.684,-72.266,-130.371,-743.164
1667327393.138,-114.258,-90.332,-136.230,-441.895
1667327393.142,103.027,-76.172,-108.398,523.438
1667327393.146,57.617,-63.965,-103.516,436.035
1667327393.150,-171.875,-81.543,-133.301,-564.941
1667327393.186,-167.969,-87.891,-133.789,-667.969
1667327393.190,44.922,-76.172,-105.469,245.605
1667327393.194,110.352,-63.477,-90.332,602.539
1667327393.198,-112.305,-77.637,-112.793,-312.012
1667327393.202,-193.848,-85.938,-113.770,-767.090
1667327393.206,-0.977,-74.219,-94.727,-5.371
1667327393.210,133.789,-67.871,-97.168,663.086
1667327393.213,-50.293,-83.984,-125.000,-26.855
1667327393.217,-208.984,-91.309,-132.812,-782.715
1667327393.221,-73.730,-78.613,-104.980,-281.738
1667327393.225,134.277,-69.336,-94.238,618.164
1667327393.229,26.367,-82.031,-125.000,271.973
1667327393.197,-199.707,-87.891,-131.836,-712.402
1667327393.201,-125.488,-74.219,-107.910,-473.633
1667327393.205,107.910,-70.801,-99.121,529.785
1667327393.209,75.195,-76.660,-104.492,485.840
1667327393.213,-158.691,-83.984,-121.094,-486.816
1667327393.217,-167.480,-83.008,-124.512,-669.434
1667327393.221,45.410,-76.172,-109.863,196.777
1667327393.224,125.977,-72.266,-100.586,632.812
1667327393.228,-105.469,-77.148,-111.816,-264.160
1667327393.232,-210.449,-80.078,-122.559,-811.035
1667327393.236,-23.926,-77.148,-115.234,-83.984
1667327393.240,133.789,-68.848,-104.980,664.551
1667327393.242,-52.246,-68.848,-116.211,15.625
1667327393.246,-229.004,-71.289,-132.324,-797.852
1667327393.250,-92.773,-76.172,-127.930,-324.707
1667327393.254,125.488,-85.449,-122.070,626.953
1667327393.258,25.879,-76.172,-113.281,332.031
1667327393.262,-210.938,-76.660,-116.699,-679.688
1667327393.266,-152.344,-85.938,-119.141,-569.336
1667327393.269,73.242,-75.684,-97.656,399.414
1667327393.273,76.172,-63.477,-87.891,528.320
1667327393.277,-156.738,-76.660,-111.816,-455.566
1667327393.281,-194.824,-86.914,-114.746,-731.934
1667327393.285,14.648,-69.336,-96.191,131.836
1667327393.303,117.188,-55.664,-107.910,656.738
1667327393.307,-101.074,-73.242,-127.441,-182.617
1667327393.311,-218.262,-84.961,-119.629,-791.992
1667327393.315,-50.293,-69.824,-97.168,-135.742
1667327393.319,124.512,-60.547,-80.566,662.109
1667327393.323,-28.320,-78.125,-102.051,99.609
1667327393.327,-203.125,-92.773,-121.582,-733.887
1667327393.330,-85.449,-83.984,-112.305,-361.328
1667327393.334,121.582,-65.430,-90.820,541.504
1667327393.338,62.500,-67.871,-103.516,394.531
1667327393.342,-173.340,-89.844,-134.766,-590.332
1667327393.346,-159.668,-83.496,-124.512,-611.816
1667327393.333,62.012,-58.594,-103.027,322.266
1667327393.337,108.398,-60.059,-104.492,585.938
1667327393.341,-131.348,-79.590,-121.582,-387.695
1667327393.345,-193.359,-81.055,-118.652,-773.438
1667327393.349,17.578,-67.871,-106.445,46.387
1667327393.353,151.855,-64.941,-109.375,662.598
1667327393.357,-58.105,-65.430,-119.141,-120.117
1667327393.360,-214.844,-65.918,-121.094,-823.242
1667327393.364,-57.129,-65.430,-103.027,-226.074
1667327393.368,139.648,-72.266,-98.633,641.602
1667327393.372,-7.324,-81.055,-125.000,173.340
1667327393.376,-224.609,-81.543,-142.578,-769.531
1667327393.422,-117.188,-75.684,-137.207,-480.957
1667327393.426,106.934,-57.617,-103.516,485.352
1667327393.430,42.969,-55.664,-107.422,393.066
1667327393.434,-231.445,-72.266,-133.789,-649.902
1667327393.438,-251.953,-81.055,-127.441,-762.695
1667327393.442,-50.293,-79.590,-115.723,143.066
1667327393.446,-9.277,-77.637,-113.281,476.562
1667327393.449,-259.766,-82.031,-136.230,-466.309
1667327393.453,-364.746,-87.402,-143.066,-949.707
1667327393.457,-185.059,-88.379,-132.812,-184.570
1667327393.461,-51.758,-68.848,-136.230,480.957
1667327393.465,-238.281,-65.430,-148.438,-232.422
1667327393.437,-385.254,-78.613,-154.785,-970.703
1667327393.441,-241.211,-73.242,-145.996,-446.777
1667327393.445,-34.180,-57.129,-127.930,453.613
1667327393.449,-129.883,-62.012,-140.137,105.469
1667327393.453,-341.309,-75.684,-159.180,-841.797
1667327393.457,-261.230,-71.777,-138.184,-648.926
1667327393.461,-18.066,-57.617,-104.980,329.102
1667327393.464,-19.043,-61.523,-116.211,405.762
1667327393.468,-246.582,-84.473,-139.160,-575.684
1667327393.472,-257.812,-89.844,-124.023,-787.109
1667327393.476,-33.203,-74.707,-96.191,101.074
1667327393.480,67.871,-72.266,-103.027,562.012
1667327393.482,-144.043,-83.984,-125.000,-306.152
1667327393.486,-236.328,-79.102,-121.582,-834.473
1667327393.490,-39.551,-75.195,-103.027,-104.980
1667327393.494,138.184,-67.871,-89.355,644.531
1667327393.498,-20.020,-82.031,-112.793,36.621
1667327393.502,-208.984,-93.750,-121.094,-783.203
1667327393.506,-77.148,-77.148,-92.285,-348.145
1667327393.509,153.809,-70.312,-81.543,594.238
1667327393.513,65.918,-89.844,-111.328,356.445
1667327393.517,-166.504,-93.750,-120.605,-631.348
1667327393.521,-114.258,-72.266,-96.191,-562.500
1667327393.525,127.441,-68.848,-81.543,415.039
1667327393.527,136.230,-68.848,-85.449,574.219
1667327393.531,-107.422,-71.289,-106.445,-415.527
1667327393.535,-147.461,-79.102,-108.887,-703.125
1667327393.539,55.664,-80.078,-88.867,153.809
1667327393.543,155.273,-83.496,-85.938,673.828
1667327393.547,-57.617,-95.215,-108.398,-149.414
1667327393.551,-173.340,-90.820,-104.492,-761.719
1667327393.554,2.441,-87.891,-94.727,-101.562
1667327393.558,175.781,-83.496,-88.867,703.125
1667327393.562,14.648,-78.613,-94.238,136.719
1667327393.566,-171.875,-89.355,-107.422,-733.398
1667327393.570,-61.523,-90.820,-94.238,-356.445
1667327393.572,154.297,-72.266,-69.824,583.496
1667327393.576,92.285,-66.406,-77.637,409.180
1667327393.580,-141.113,-89.844,-103.516,-593.750
1667327393.584,-114.746,-92.285,-112.305,-611.328
1667327393.588,105.957,-75.195,-96.680,333.496
1667327393.592,142.578,-80.078,-96.191,606.445
1667327393.596,-93.750,-87.402,-116.211,-344.238
1667327393.599,-158.691,-88.379,-113.770,-726.562
1667327393.603,35.156,-79.102,-95.703,74.707
1667327393.607,159.668,-67.871,-86.426,680.176
1667327393.611,-34.668,-84.961,-114.258,-76.660
1667327393.615,-169.922,-94.238,-117.676,-758.789
1667327393.617,-18.066,-82.520,-88.379,-172.852
1667327393.621,166.504,-70.801,-83.496,673.828
1667327393.625,39.062,-81.055,-107.422,221.680
1667327393.629,-177.246,-98.145,-123.535,-699.219
1667327393.633,-99.609,-81.055,-98.145,-443.359
1667327393.637,131.836,-63.477,-84.961,513.672
1667327393.641,96.680,-76.172,-104.980,480.469
1667327393.644,-153.809,-90.332,-115.234,-522.461
1667327393.648,-157.715,-74.219,-102.051,-650.391
1667327393.652,66.895,-67.383,-100.586,278.320
1667327393.656,127.930,-71.777,-101.074,633.789
1667327393.660,-102.051,-80.078,-114.258,-291.016
1667327393.662,-187.012,-77.637,-110.352,-746.582
1667327393.666,3.418,-67.871,-93.262,13.672
1667327393.670,137.695,-66.406,-89.355,675.293
1667327393.674,-51.270,-76.660,-102.539,-34.668
1667327393.678,-205.566,-83.984,-112.305,-790.039
1667327393.682,-54.688,-76.172,-99.121,-251.465
1667327393.686,146.973,-73.242,-86.914,657.715
1667327393.689,29.297,-73.242,-100.098,280.273
1667327393.693,-187.012,-71.289,-112.793,-693.848
1667327393.697,-112.305,-69.824,-103.516,-493.164
1667327393.701,111.816,-69.824,-91.797,480.469
1667327393.705,92.773,-69.336,-95.703,518.066
1667327393.707,-152.832,-74.219,-112.793,-487.305
1667327393.711,-175.293,-80.078,-118.164,-693.848
1667327393.715,47.363,-70.312,-96.680,197.266
1667327393.719,133.301,-62.012,-88.379,634.277
1667327393.723,-86.914,-77.637,-108.887,-248.535
1667327393.727,-185.059,-93.262,-127.441,-775.391
1667327393.731,-5.371,-82.520,-118.164,-66.406
1667327393.734,149.902,-64.453,-106.445,655.762
1667327393.738,-18.555,-77.148,-120.117,40.527
1667327393.742,-184.570,-90.332,-120.605,-760.254
1667327393.746,-56.152,-86.426,-104.004,-319.336
1667327393.750,136.230,-68.359,-90.820,587.891
1667327393.783,44.922,-63.965,-103.027,326.172
1667327393.787,-170.898,-77.148,-130.371,-647.461
1667327393.791,-111.816,-70.801,-127.930,-560.547
1667327393.795,107.422,-56.152,-104.980,393.066
1667327393.799,116.699,-57.617,-109.375,554.199
1667327393.803,-119.629,-73.242,-132.324,-413.086
1667327393.807,-176.758,-76.172,-125.000,-712.891
1667327393.810,31.250,-60.547,-95.703,126.953
1667327393.814,142.578,-50.293,-85.449,643.555
1667327393.818,-65.430,-76.660,-117.676,-154.297
1667327393.822,-197.266,-83.008,-121.094,-775.391
1667327393.826,-34.668,-63.965,-96.191,-153.809
1667327393.813,147.949,-56.641,-91.797,661.621
1667327393.817,-4.883,-62.500,-111.816,120.605
1667327393.821,-194.336,-67.871,-127.930,-732.910
1667327393.825,-79.590,-63.477,-118.164,-356.934
1667327393.829,127.441,-62.012,-104.004,554.199
1667327393.833,62.988,-63.477,-112.793,404.785
1667327393.837,-179.199,-72.754,-127.441,-602.051
1667327393.840,-153.809,-68.359,-116.211,-617.188
1667327393.844,83.008,-59.570,-101.562,338.379
1667327393.848,116.699,-61.523,-96.191,589.844
1667327393.852,-127.930,-72.266,-112.793,-365.723
1667327393.856,-193.848,-69.336,-121.094,-747.559
1667327393.858,10.742,-56.152,-108.398,67.871
1667327393.862,132.324,-49.805,-96.680,663.086
1667327393.866,-69.336,-61.035,-111.328,-102.051
1667327393.870,-207.031,-70.801,-128.418,-791.016
1667327393.874,-45.898,-72.754,-126.465,-191.406
1667327393.878,144.043,-64.941,-105.957,657.715
1667327393.882,13.184,-68.848,-112.305,191.895
1667327393.885,-198.242,-79.590,-131.348,-731.934
1667327393.889,-106.445,-76.660,-123.535,-446.289
1667327393.893,117.676,-62.012,-96.191,521.484
1667327393.897,74.707,-58.594,-84.473,446.777
1667327393.901,-163.086,-78.125,-115.723,-555.664
1667327393.903,-161.621,-79.102,-118.652,-670.898
1667327393.907,53.223,-62.012,-90.332,237.793
1667327393.911,115.234,-58.105,-93.262,599.121
1667327393.915,-105.469,-70.801,-116.211,-305.176
1667327393.919,-190.430,-72.754,-114.258,-774.902
1667327393.923,-5.859,-66.406,-98.633,-18.066
1667327393.927,130.371,-60.547,-87.891,649.902
1667327393.930,-50.781,-78.125,-109.863,-31.738
1667327393.934,-212.402,-94.727,-123.047,-782.715
1667327393.938,-79.590,-75.195,-94.238,-287.598
1667327393.942,131.348,-61.035,-81.055,609.375
1667327393.946,29.785,-72.266,-95.703,262.207
1667327393.977,-207.031,-84.961,-113.281,-708.496
1667327393.981,-141.602,-74.707,-100.586,-529.785
1667327393.985,91.797,-61.523,-82.031,446.289
1667327393.989,76.172,-70.312,-97.168,500.977
1667327393.993,-168.457,-83.008,-120.605,-493.652
1667327393.997,-193.359,-83.496,-114.258,-709.473
1667327394.001,25.879,-78.125,-91.309,178.223
1667327394.004,119.141,-82.520,-95.703,642.578
1667327394.008,-108.887,-80.078,-102.051,-236.328
1667327394.012,-222.656,-66.406,-96.680,-797.363
1667327394.016,-26.367,-67.871,-94.727,-79.102
1667327394.020,141.602,-72.754,-93.262,675.781
1667327393.994,-42.480,-67.383,-95.703,44.434
1667327393.998,-216.309,-70.801,-102.051,-779.785
1667327394.002,-83.984,-73.242,-96.680,-342.773
1667327394.006,123.047,-65.430,-79.590,572.754
1667327394.010,42.480,-68.359,-86.426,326.172
1667327394.014,-185.059,-84.473,-111.328,-654.785
1667327394.018,-144.531,-81.543,-104.004,-577.148
1667327394.021,75.684,-62.012,-73.242,382.324
1667327394.025,92.773,-59.082,-75.195,554.199
1667327394.029,-147.949,-73.242,-110.840,-419.922
1667327394.033,-195.312,-81.055,-110.352,-733.887
1667327394.037,14.160,-71.777,-83.008,94.727
1667327394.037,125.000,-64.453,-79.590,626.465
1667327394.041,-75.195,-71.777,-99.121,-166.504
1667327394.045,-208.984,-82.520,-105.469,-797.852
1667327394.049,-40.527,-77.148,-85.449,-156.738
1667327394.053,144.043,-64.453,-69.824,654.297
1667327394.057,-13.672,-75.684,-96.680,126.465
1667327394.061,-204.590,-100.098,-122.070,-732.422
1667327394.064,-96.191,-94.727,-97.656,-374.512
1667327394.068,111.816,-65.918,-62.500,543.457
1667327394.072,57.129,-65.918,-83.496,388.184
1667327394.076,-175.293,-71.289,-104.492,-606.445
1667327394.080,-158.203,-69.824,-92.285,-639.160
1667327394.099,67.871,-63.477,-81.055,303.711
1667327394.103,114.258,-62.012,-86.426,583.496
1667327394.107,-124.023,-83.008,-106.445,-371.582
1667327394.111,-194.336,-85.938,-102.051,-772.461
1667327394.115,7.812,-69.336,-82.520,38.574
1667327394.119,137.695,-71.777,-89.355,683.105
1667327394.123,-62.500,-79.102,-105.957,-70.801
1667327394.126,-209.961,-77.148,-104.980,-799.316
1667327394.130,-47.363,-70.312,-91.797,-214.844
1667327394.134,150.879,-73.242,-87.402,657.227
1667327394.138,18.555,-78.613,-103.516,211.914
1667327394.142,-192.871,-77.637,-114.746,-731.934
1667327394.142,-105.957,-82.520,-95.215,-458.008
1667327394.146,123.047,-69.336,-68.359,518.066
1667327394.150,95.215,-63.477,-75.684,492.676
1667327394.154,-159.668,-73.730,-98.633,-546.387
1667327394.158,-156.250,-79.102,-100.586,-608.887
1667327394.162,73.730,-79.102,-85.938,351.562
1667327394.166,126.465,-72.754,-77.637,611.816
1667327394.169,-108.398,-84.961,-96.191,-311.523
1667327394.173,-201.660,-99.121,-102.051,-784.668
1667327394.177,-9.766,-84.473,-88.867,-23.438
1667327394.181,133.301,-68.848,-88.867,645.020
1667327394.185,-52.734,-83.496,-95.215,-42.480
1667327394.188,-211.914,-97.168,-106.445,-784.668
1667327394.192,-65.430,-95.703,-113.770,-264.160
1667327394.196,130.371,-70.801,-82.520,619.141
1667327394.200,25.879,-68.359,-78.613,266.113
1667327394.204,-186.035,-91.309,-104.492,-691.406
1667327394.208,-125.488,-96.680,-96.680,-518.555
1667327394.212,94.727,-80.078,-79.590,434.570
1667327394.215,87.402,-75.195,-85.938,496.094
1667327394.219,-146.973,-98.145,-108.887,-468.262
1667327394.223,-172.852,-93.262,-108.398,-687.500
1667327394.227,36.621,-65.918,-81.543,166.016
1667327394.231,123.535,-65.430,-85.449,623.047
1667327394.233,-101.074,-84.473,-109.375,-248.535
1667327394.237,-210.449,-89.844,-113.770,-802.734
1667327394.241,-29.297,-73.242,-91.797,-85.449
1667327394.245,136.230,-67.871,-71.289,661.621
1667327394.249,-30.273,-80.566,-95.215,44.922
1667327394.253,-216.797,-89.844,-109.375,-774.414
1667327394.257,-93.262,-86.426,-94.727,-342.285
1667327394.260,128.906,-71.289,-84.961,593.262
1667327394.264,47.852,-86.426,-108.398,349.609
1667327394.268,-189.941,-95.215,-123.047,-658.203
1667327394.272,-151.855,-75.684,-100.098,-592.773
1667327394.276,78.613,-69.336,-93.750,371.582
1667327394.278,95.215,-75.195,-98.145,543.457
1667327394.282,-152.344,-85.449,-113.281,-430.664
1667327394.286,-201.172,-87.891,-122.559,-737.305
1667327394.290,14.160,-80.566,-102.051,119.141
1667327394.294,131.836,-68.359,-82.031,659.180
1667327394.298,-74.219,-73.730,-94.238,-155.762
1667327394.302,-212.891,-84.961,-112.793,-798.828
1667327394.305,-39.551,-82.031,-111.816,-146.484
1667327394.309,148.926,-69.336,-94.238,675.293
1667327394.313,-11.719,-63.477,-96.680,112.793
1667327394.317,-204.102,-75.195,-107.910,-770.508
1667327394.321,-91.309,-71.289,-89.355,-408.691
1667327394.323,125.488,-61.523,-73.730,542.969
1667327394.327,62.500,-64.941,-82.520,399.902
1667327394.331,-169.922,-77.148,-100.586,-595.703
1667327394.335,-145.020,-78.613,-97.168,-623.047
1667327394.339,80.078,-67.383,-81.055,315.430
1667327394.343,113.770,-77.148,-91.309,584.473
1667327394.347,-131.348,-88.867,-110.352,-373.535
1667327394.350,-193.848,-99.609,-116.699,-748.047
1667327394.354,1.953,-94.238,-101.074,62.012
1667327394.358,125.977,-69.336,-79.102,649.414
1667327394.362,-62.012,-81.543,-99.121,-101.074
1667327394.366,-208.008,-93.262,-113.770,-804.199
1667327394.368,-57.129,-80.078,-97.168,-204.590
1667327394.372,136.719,-74.707,-87.402,611.816
1667327394.376,17.090,-83.008,-102.051,165.527
1667327394.380,-197.754,-84.961,-109.375,-712.402
1667327394.384,-120.117,-84.473,-100.098,-480.469
1667327394.388,111.328,-75.684,-87.402,491.211
1667327394.392,88.379,-77.637,-96.680,477.051
1667327394.395,-157.227,-88.867,-111.816,-520.996
1667327394.399,-177.246,-75.195,-102.051,-673.828
1667327394.403,48.828,-68.359,-83.496,238.770
1667327394.407,122.559,-69.824,-87.402,607.422
1667327394.411,-118.652,-85.938,-116.699,-309.082
1667327394.413,-210.938,-93.750,-112.305,-790.039
1667327394.417,-13.672,-83.008,-85.938,-33.691
1667327394.421,128.906,-85.449,-83.008,646.973
1667327394.425,-56.152,-83.984,-99.121,-28.320
1667327394.429,-215.820,-81.543,-109.375,-780.762
1667327394.433,-74.219,-82.520,-107.910,-285.156
1667327394.437,125.488,-80.078,-100.586,608.887
1667327394.440,16.602,-80.078,-106.934,269.531
1667327394.444,-205.078,-82.520,-116.699,-695.312
1667327394.448,-142.090,-83.496,-106.934,-535.645
1667327394.452,94.727,-77.637,-87.402,442.871
1667327394.456,82.031,-74.707,-86.914,505.371
1667327394.458,-161.133,-81.055,-105.469,-490.234
1667327394.462,-179.688,-85.938,-105.469,-698.730
1667327394.466,30.762,-79.590,-88.867,184.570
1667327394.470,111.816,-67.383,-83.008,627.441
1667327394.474,-108.887,-73.242,-105.957,-236.816
1667327394.478,-212.402,-85.449,-129.395,-770.020
1667327394.482,-30.762,-78.125,-112.305,-71.289
1667327394.485,128.906,-62.500,-83.008,660.645
1667327394.489,-38.574,-71.289,-93.262,52.734
1667327394.493,-217.773,-85.449,-120.117,-763.672
1667327394.497,-100.098,-82.031,-111.816,-346.191
1667327394.501,122.070,-65.430,-82.520,569.824
1667327394.518,67.871,-63.477,-99.609,360.840
1667327394.522,-162.109,-76.172,-125.977,-616.211
1667327394.526,-136.230,-78.613,-111.816,-570.801
1667327394.530,81.055,-75.684,-83.496,379.395
1667327394.534,85.938,-87.891,-87.402,549.316
1667327394.538,-149.414,-104.004,-112.793,-412.598
1667327394.542,-190.918,-105.469,-115.723,-715.332
1667327394.545,6.836,-95.703,-87.402,110.840
1667327394.549,108.398,-92.285,-75.684,640.137
1667327394.553,-95.215,-118.652,-93.750,-125.977
1667327394.557,-235.352,-117.676,-87.891,-765.625
1667327394.561,-72.754,-93.262,-59.082,-156.250
1667327394.563,121.094,-103.027,-53.223,668.945
1667327394.567,-25.879,-118.164,-79.590,152.344
1667327394.571,-229.004,-115.234,-86.426,-737.305
1667327394.575,-115.723,-109.375,-70.801,-390.137
1667327394.579,116.211,-100.098,-58.105,568.359
1667327394.583,66.895,-104.492,-66.406,443.359
1667327394.587,-177.246,-110.352,-84.961,-553.223
1667327394.590,-163.574,-104.004,-85.449,-612.305
1667327394.594,69.824,-106.934,-70.801,330.566
1667327394.598,114.258,-105.957,-61.523,625.000
1667327394.602,-131.836,-100.586,-76.660,-337.891
1667327394.606,-201.660,-104.004,-92.773,-740.723
1667327394.608,4.883,-93.750,-77.637,60.547
1667327394.612,135.742,-83.496,-67.871,666.992
1667327394.616,-59.570,-86.914,-79.590,-83.496
1667327394.620,-208.008,-94.238,-89.355,-783.691
1667327394.624,-55.664,-92.285,-77.637,-193.359
1667327394.628,137.695,-84.961,-73.242,660.645
1667327394.632,8.789,-86.426,-93.262,213.867
1667327394.635,-203.613,-88.379,-106.934,-714.844
1667327394.639,-118.164,-94.238,-101.562,-443.359
1667327394.643,101.074,-84.961,-64.941,520.020
1667327394.647,65.430,-69.336,-56.641,462.891
1667327394.651,-171.387,-89.844,-101.562,-526.855
1667327394.653,-183.105,-95.215,-103.516,-657.715
1667327394.657,36.133,-78.125,-73.242,242.188
1667327394.661,105.957,-80.078,-71.777,594.238
1667327394.665,-123.047,-90.332,-98.633,-312.012
1667327394.669,-211.914,-86.914,-108.398,-777.344
1667327394.673,-17.090,-78.125,-94.238,-19.531
1667327394.677,133.789,-72.266,-82.031,668.945
1667327394.680,-45.898,-85.449,-97.656,4.395
1667327394.684,-211.914,-93.750,-101.074,-759.766
1667327394.688,-77.148,-71.777,-73.242,-275.391
1667327394.692,132.812,-68.848,-59.570,617.188
1667327394.696,28.809,-81.055,-73.242,283.203
1667327394.698,-202.637,-86.426,-96.680,-683.105
1667327394.702,-145.996,-80.566,-88.867,-538.086
1667327394.706,88.867,-71.289,-69.336,420.898
1667327394.710,84.961,-71.289,-77.637,502.930
1667327394.714,-161.621,-81.543,-103.027,-459.961
1667327394.718,-193.848,-82.031,-111.816,-687.500
1667327394.722,20.020,-72.266,-86.914,159.668
1667327394.725,120.605,-77.637,-91.309,638.672
1667327394.729,-102.051,-87.402,-110.840,-218.750
1667327394.733,-221.191,-77.148,-87.891,-796.875
1667327394.737,-32.715,-72.754,-77.148,-92.285
1667327394.741,133.789,-67.383,-73.730,660.156
1667327394.742,-41.992,-69.824,-91.309,48.828
1667327394.746,-226.074,-77.637,-104.980,-776.367
1667327394.750,-103.027,-80.078,-91.309,-349.121
1667327394.754,112.793,-69.824,-69.336,583.984
1667327394.758,33.203,-69.824,-89.844,330.078
1667327394.762,-200.195,-88.379,-129.883,-656.250
1667327394.766,-156.250,-87.891,-117.676,-554.688
1667327394.769,73.242,-72.754,-83.008,384.766
1667327394.773,88.379,-67.871,-77.637,535.156
1667327394.777,-148.926,-82.031,-98.145,-422.852
1667327394.781,-188.965,-83.496,-94.238,-732.910
1667327394.785,21.484,-70.312,-76.172,92.773
1667327394.787,123.535,-56.641,-74.707,624.023
1667327394.791,-86.426,-73.730,-102.539,-174.316
1667327394.795,-216.797,-91.797,-119.141,-802.246
1667327394.799,-53.223,-77.148,-98.633,-173.828
1667327394.803,132.324,-65.918,-85.449,646.484
1667327394.807,-14.160,-85.938,-113.281,128.906
1667327394.811,-207.520,-99.121,-122.070,-742.188
1667327394.814,-116.699,-88.379,-93.750,-416.504
1667327394.818,93.750,-76.660,-84.961,513.672
1667327394.822,44.434,-84.473,-103.027,386.230
1667327394.826,-194.824,-93.262,-114.746,-606.445
1667327394.830,-179.688,-81.055,-113.770,-646.973
1667327394.832,49.316,-77.637,-96.191,285.156
1667327394.836,99.609,-86.426,-94.727,579.102
1667327394.840,-134.766,-86.914,-119.141,-359.863
1667327394.844,-211.426,-81.055,-115.723,-753.418
1667327394.848,-15.625,-75.684,-96.191,34.668
1667327394.852,123.535,-86.426,-92.773,657.227
1667327394.856,-79.590,-95.703,-105.469,-83.984
1667327394.859,-236.328,-81.543,-99.121,-809.082
1667327394.863,-69.824,-70.312,-77.148,-224.609
1667327394.867,119.141,-68.359,-76.172,598.145
1667327394.871,-10.742,-77.637,-102.051,154.785
1667327394.875,-210.449,-83.008,-121.582,-716.797
1667327394.892,-127.930,-78.613,-108.398,-476.074
1667327394.896,94.727,-74.707,-86.914,473.145
1667327394.900,61.035,-72.266,-94.238,450.684
1667327394.904,-176.758,-79.102,-112.305,-537.109
1667327394.908,-180.176,-86.426,-105.469,-676.758
1667327394.912,46.875,-79.590,-85.449,233.398
1667327394.916,123.047,-66.406,-86.426,605.469
1667327394.919,-102.051,-73.242,-110.840,-306.152
1667327394.923,-188.477,-80.566,-115.723,-779.785
1667327394.927,5.859,-83.496,-104.492,-14.160
1667327394.931,141.602,-70.801,-83.984,670.898
1667327394.935,-63.965,-69.824,-101.562,-31.250
1667327394.937,-229.004,-82.520,-121.582,-791.992
1667327394.941,-84.473,-71.289,-99.609,-288.086
1667327394.945,124.512,-60.059,-86.426,615.234
1667327394.949,13.184,-70.801,-95.215,246.094
1667327394.953,-185.547,-85.449,-105.469,-611.328
1667327394.957,-108.398,-85.449,-101.074,-391.602
1667327394.961,84.961,-66.895,-77.148,420.898
1667327394.964,84.961,-55.176,-73.242,508.301
1667327394.968,-148.926,-77.148,-103.027,-456.055
1667327394.972,-186.035,-82.520,-111.816,-680.664
1667327394.976,20.996,-57.129,-83.496,164.551
1667327394.980,125.488,-54.688,-79.102,622.070
1667327394.997,-91.309,-71.289,-102.539,-227.051
1667327395.001,-210.938,-74.219,-102.539,-786.133
1667327395.005,-32.715,-62.988,-83.984,-99.609
1667327395.009,135.742,-58.105,-79.102,659.668
1667327395.013,-38.086,-70.312,-97.656,53.223
1667327395.017,-220.703,-83.496,-111.816,-774.414
1667327395.021,-98.633,-77.148,-97.168,-345.215
1667327395.024,117.188,-61.523,-71.777,577.148
1667327395.028,53.711,-72.754,-87.402,373.535
1667327395.032,-189.453,-82.520,-108.398,-604.492
1667327395.036,-167.969,-66.895,-92.285,-586.426
1667327395.040,71.289,-62.500,-71.289,357.910
1667327395.027,94.727,-62.988,-70.312,549.805
1667327395.031,-145.020,-70.312,-100.586,-408.691
1667327395.035,-195.801,-72.266,-113.281,-742.188
1667327395.039,17.090,-65.430,-82.520,127.441
1667327395.043,117.188,-66.406,-70.312,569.824
1667327395.047,-96.680,-77.148,-90.820,-298.828
1667327395.051,-197.266,-78.613,-97.656,-768.555
1667327395.054,-28.809,-67.383,-83.496,-141.602
1667327395.058,133.301,-61.035,-72.754,633.789
1667327395.062,-19.531,-69.336,-89.844,111.816
1667327395.066,-204.102,-74.219,-111.328,-748.535
1667327395.070,-88.379,-78.125,-105.469,-390.625
1667327395.072,135.254,-67.383,-75.195,556.641
1667327395.076,73.242,-60.059,-72.266,407.715
1667327395.080,-155.273,-78.125,-95.215,-574.707
1667327395.084,-133.301,-82.520,-91.797,-602.051
1667327395.088,81.543,-69.336,-75.684,313.965
1667327395.092,109.375,-59.570,-84.961,578.125
1667327395.096,-131.836,-68.848,-116.211,-358.887
1667327395.099,-187.988,-75.684,-123.535,-737.305
1667327395.103,11.719,-56.641,-94.238,46.875
1667327395.107,144.531,-38.086,-72.754,650.391
1667327395.111,-46.387,-56.152,-103.027,-90.332
1667327395.115,-200.195,-76.660,-130.371,-781.250
1667327395.117,-63.477,-59.082,-103.516,-221.680
1667327395.121,133.301,-35.645,-83.496,623.047
1667327395.125,22.949,-50.293,-101.562,204.590
1667327395.129,-191.406,-67.871,-114.258,-715.820
1667327395.133,-114.746,-65.918,-102.051,-472.168
1667327395.137,119.141,-67.383,-80.566,488.281
1667327395.141,94.238,-73.242,-103.027,476.074
1667327395.144,-153.320,-77.148,-128.418,-519.531
1667327395.148,-168.457,-64.941,-104.980,-676.758
1667327395.152,56.641,-58.105,-87.402,221.191
1667327395.156,126.465,-69.824,-83.984,600.098
1667327395.160,-112.793,-74.219,-92.773,-302.734
1667327395.162,-202.637,-71.289,-98.633,-778.809
1667327395.166,-4.395,-71.777,-92.285,-25.391
1667327395.170,150.879,-67.871,-82.031,677.734
1667327395.174,-48.828,-75.195,-98.633,-15.625
1667327395.178,-227.051,-87.402,-119.141,-794.434
1667327395.182,-80.078,-83.496,-103.516,-295.410
1667327395.186,133.301,-77.148,-96.191,609.375
1667327395.189,22.461,-76.660,-112.305,274.414
1667327395.193,-212.891,-75.195,-114.746,-706.543
1667327395.197,-153.320,-78.125,-103.516,-539.062
1667327395.201,75.684,-64.941,-89.355,434.082
1667327395.205,75.195,-62.012,-89.844,503.418
1667327395.207,-166.016,-85.938,-110.840,-489.258
1667327395.211,-200.684,-93.262,-116.699,-707.520
1667327395.215,14.160,-78.613,-104.004,155.762
1667327395.219,108.887,-68.848,-94.238,604.004
1667327395.223,-111.328,-82.031,-110.840,-250.977
1667327395.227,-216.309,-94.727,-120.605,-784.180
1667327395.231,-34.180,-86.426,-100.586,-90.332
1667327395.234,136.230,-65.918,-83.496,641.602
1667327395.238,-28.809,-70.312,-96.191,39.551
1667327395.242,-208.984,-89.355,-109.375,-769.043
1667327395.246,-92.773,-86.914,-102.539,-346.680
1667327395.250,106.934,-67.871,-95.703,563.477
1667327395.267,29.297,-70.312,-104.004,337.402
1667327395.271,-197.266,-81.543,-112.305,-635.742
1667327395.275,-153.809,-77.148,-101.562,-578.125
1667327395.279,74.707,-62.988,-70.312,359.375
1667327395.283,99.609,-64.941,-70.312,538.086
1667327395.287,-140.137,-81.543,-104.492,-416.504
1667327395.291,-200.684,-91.309,-111.816,-724.121
1667327395.294,-1.465,-83.008,-101.074,91.797
1667327395.298,117.188,-72.266,-98.145,626.953
1667327395.302,-85.938,-84.473,-118.652,-148.438
1667327395.306,-228.516,-82.520,-116.699,-789.062
1667327395.310,-61.523,-66.406,-86.914,-184.082
1667327395.312,131.348,-63.965,-78.125,640.137
1667327395.316,-21.973,-73.730,-107.910,144.043
1667327395.320,-224.609,-74.707,-120.117,-748.535
1667327395.324,-123.535,-73.242,-99.609,-434.082
1667327395.328,95.215,-72.754,-82.520,520.508
1667327395.332,45.898,-75.684,-90.820,410.156
1667327395.336,-192.871,-81.543,-119.141,-586.914
1667327395.339,-177.734,-72.266,-122.070,-633.301
1667327395.343,63.477,-61.523,-96.191,313.477
1667327395.347,106.934,-62.012,-88.867,589.844
1667327395.351,-146.973,-62.500,-105.469,-375.977
1667327395.355,-216.797,-70.801,-117.188,-761.719
1667327395.357,-18.555,-68.848,-95.215,34.180
1667327395.361,113.281,-64.453,-80.078,646.973
1667327395.365,-84.473,-73.242,-97.168,-97.656
1667327395.369,-232.422,-77.148,-111.328,-798.828
1667327395.373,-77.637,-67.871,-102.539,-235.840
1667327395.377,118.652,-58.594,-87.891,620.605
1667327395.381,-1.953,-66.895,-101.074,204.590
1667327395.384,-209.473,-80.566,-131.836,-725.586
1667327395.388,-122.559,-87.891,-132.324,-463.867
1667327395.392,100.098,-71.777,-90.332,498.047
1667327395.396,68.359,-61.035,-68.359,455.566
1667327395.400,-168.457,-80.078,-100.098,-540.039
1667327395.402,-180.664,-77.148,-107.910,-681.152
1667327395.406,31.738,-58.105,-84.473,211.426
1667327395.410,105.469,-57.129,-90.332,589.844
1667327395.414,-116.211,-74.707,-107.910,-285.645
1667327395.418,-212.402,-80.566,-115.723,-772.949
1667327395.422,-23.438,-63.965,-102.051,-29.785
1667327395.426,124.512,-57.617,-100.586,660.156
1667327395.429,-55.664,-80.078,-126.465,-4.395
1667327395.433,-222.168,-92.285,-120.605,-759.277
1667327395.437,-90.820,-74.219,-98.633,-285.156
1667327395.441,119.141,-56.152,-86.914,598.633
1667327395.445,18.555,-64.453,-95.215,262.695
1667327395.448,-210.449,-81.543,-110.840,-703.613
1667327395.452,-151.855,-80.078,-109.375,-551.758
1667327395.456,93.750,-66.406,-92.773,418.457
1667327395.460,90.820,-63.965,-97.168,505.859
1667327395.464,-152.344,-75.195,-116.211,-459.961
1667327395.468,-174.316,-73.242,-123.535,-687.988
1667327395.472,26.855,-63.477,-105.957,151.367
1667327395.475,122.070,-78.613,-109.375,634.766
1667327395.479,-99.121,-90.332,-123.535,-214.355
1667327395.483,-218.750,-72.754,-103.516,-802.734
1667327395.487,-37.598,-67.871,-94.238,-109.863
1667327395.491,123.535,-72.266,-98.145,641.113
1667327395.493,-42.969,-74.219,-105.957,44.434
1667327395.497,-220.703,-76.172,-107.910,-781.738
1667327395.501,-99.121,-77.637,-110.840,-362.305
1667327395.505,117.188,-72.754,-98.633,560.547
1667327395.509,32.227,-72.754,-89.844,323.730
1667327395.513,-201.172,-88.379,-107.910,-651.367
1667327395.517,-161.133,-92.285,-111.328,-580.566
1667327395.520,64.453,-74.707,-89.844,369.629
1667327395.524,81.543,-59.082,-77.148,535.645
1667327395.528,-154.785,-72.754,-102.051,-424.316
1667327395.532,-203.125,-82.520,-114.258,-729.492
1667327395.536,1.953,-69.336,-98.145,102.539
1667327395.538,120.117,-62.988,-84.961,638.672
1667327395.542,-86.914,-80.566,-106.934,-164.062
1667327395.546,-224.609,-86.426,-121.582,-800.293
1667327395.550,-62.012,-75.195,-94.727,-181.641
1667327395.554,123.047,-61.035,-78.125,636.230
1667327395.558,-17.090,-66.895,-103.516,124.023
1667327395.562,-215.332,-89.355,-129.883,-744.629
1667327395.565,-120.117,-76.660,-109.375,-406.738
1667327395.569,101.562,-53.711,-72.266,510.254
1667327395.573,62.500,-64.941,-85.449,400.391
1667327395.577,-174.805,-77.637,-120.117,-571.289
1667327395.581,-174.316,-68.359,-114.258,-633.301
1667327395.583,45.898,-54.199,-84.473,271.973
1667327395.587,97.168,-56.641,-84.961,564.941
1667327395.591,-134.277,-69.336,-116.211,-356.445
1667327395.595,-212.891,-68.848,-122.070,-764.648
1667327395.599,-14.160,-63.477,-91.309,18.066
1667327395.603,130.859,-65.918,-82.520,655.762
1667327395.607,-69.824,-79.102,-103.516,-78.613
1667327395.610,-233.887,-80.078,-104.004,-808.594
1667327395.614,-77.148,-73.242,-97.656,-239.258
1667327395.618,125.977,-68.848,-89.844,627.930
1667327395.622,-0.488,-68.359,-103.027,207.031
1667327395.626,-219.238,-74.707,-115.723,-722.656
1667327395.642,-136.719,-76.172,-103.027,-482.422
1667327395.646,94.727,-68.359,-85.449,476.074
1667327395.650,71.289,-71.289,-86.914,461.914
1667327395.654,-169.434,-82.031,-110.840,-532.715
1667327395.658,-173.340,-80.078,-115.234,-674.316
1667327395.662,48.828,-67.383,-97.168,238.281
1667327395.666,118.164,-61.523,-84.473,618.652
1667327395.669,-110.840,-75.195,-103.027,-284.180
1667327395.673,-212.402,-87.402,-118.164,-768.066
1667327395.677,-16.602,-85.938,-110.840,-11.230
1667327395.681,127.930,-66.895,-95.703,666.992
1667327395.685,-59.570,-62.012,-98.633,-23.926
1667327395.687,-209.961,-78.613,-112.305,-771.484
1667327395.691,-66.895,-72.266,-97.168,-281.250
1667327395.695,129.883,-50.293,-80.078,592.285
1667327395.699,25.879,-59.570,-104.492,267.578
1667327395.703,-195.312,-80.566,-123.047,-681.641
1667327395.707,-134.277,-82.031,-106.934,-533.691
1667327395.711,91.797,-63.477,-91.309,417.969
1667327395.714,86.426,-57.129,-92.773,503.418
1667327395.718,-149.902,-88.379,-122.559,-461.426
1667327395.722,-183.105,-92.773,-117.188,-690.918
1667327395.726,22.949,-57.129,-82.520,153.809
1667327395.730,115.234,-48.828,-86.914,616.699
1667327395.732,-99.609,-62.500,-98.633,-225.586
1667327395.736,-210.449,-68.848,-102.539,-786.621
1667327395.740,-30.273,-62.500,-92.773,-103.027
1667327395.744,129.883,-57.129,-86.426,652.344
1667327395.748,-38.574,-74.219,-105.469,49.805
1667327395.752,-215.332,-77.637,-109.863,-735.352
1667327395.756,-96.191,-67.383,-97.168,-299.316
1667327395.759,107.422,-67.383,-85.938,572.754
1667327395.763,32.227,-83.496,-104.980,355.469
1667327395.767,-194.824,-88.379,-110.840,-625.000
1667327395.771,-164.551,-68.848,-87.891,-598.145
1667327395.775,68.848,-64.941,-76.660,338.867
1667327395.778,95.703,-65.918,-79.590,530.273
1667327395.782,-140.137,-66.895,-95.703,-415.527
1667327395.786,-188.477,-74.219,-107.910,-725.586
1667327395.790,10.254,-72.266,-97.656,105.957
1667327395.794,119.141,-66.406,-78.125,645.508
1667327395.798,-86.914,-75.684,-91.309,-153.809
1667327395.802,-224.609,-82.520,-102.051,-794.922
1667327395.805,-53.223,-78.613,-96.680,-154.785
1667327395.809,124.023,-70.801,-92.773,652.344
1667327395.813,-30.762,-67.871,-98.145,117.676
1667327395.817,-217.773,-83.008,-106.934,-747.559
1667327395.821,-106.445,-82.520,-99.609,-403.809
1667327395.822,113.770,-65.430,-73.242,530.762
1667327395.826,63.477,-67.383,-68.359,410.645
1667327395.830,-172.363,-80.566,-93.262,-576.172
1667327395.834,-163.574,-76.172,-99.121,-628.906
1667327395.838,64.453,-61.035,-74.219,297.363
1667327395.842,122.559,-69.824,-71.777,586.426
1667327395.846,-110.352,-91.797,-94.238,-348.633
1667327395.849,-180.176,-97.656,-108.398,-734.375
1667327395.853,10.254,-81.055,-92.285,64.941
1667327395.857,122.559,-61.035,-66.406,649.902
1667327395.861,-71.289,-78.613,-92.773,-83.008
1667327395.865,-212.891,-85.938,-113.281,-780.273
1667327395.868,-55.176,-65.430,-87.891,-225.098
1667327395.872,142.090,-47.363,-68.848,636.719
1667327395.876,19.531,-62.988,-89.355,226.562
1667327395.880,-192.871,-87.891,-107.422,-696.289
1667327395.884,-119.141,-80.566,-92.773,-467.773
1667327395.888,106.934,-67.383,-76.660,481.445
1667327395.892,85.449,-73.730,-83.984,478.027
1667327395.895,-161.621,-89.355,-104.004,-508.789
1667327395.899,-175.293,-78.613,-104.492,-672.363
1667327395.903,50.781,-69.336,-96.191,222.168
1667327395.907,120.605,-68.848,-85.449,607.910
1667327395.911,-108.887,-74.707,-101.562,-280.273
1667327395.913,-200.195,-74.219,-112.305,-759.277
1667327395.917,-11.719,-70.312,-90.332,-26.855
1667327395.921,133.789,-67.871,-78.125,644.043
1667327395.925,-44.922,-74.707,-92.773,-27.344
1667327395.929,-209.961,-83.496,-107.422,-787.598
1667327395.933,-74.219,-76.660,-96.191,-291.992
1667327395.937,131.836,-74.707,-85.938,603.516
1667327395.940,27.344,-76.172,-91.797,277.344
1667327395.944,-198.242,-73.730,-96.191,-682.129
1667327395.948,-144.531,-80.078,-103.027,-541.992
1667327395.952,77.637,-80.566,-94.727,413.574
1667327395.956,81.543,-69.336,-90.820,505.859
1667327395.973,-145.508,-72.266,-107.422,-467.285
1667327395.977,-165.527,-78.613,-108.887,-694.824
1667327395.981,44.922,-73.730,-91.797,174.805
1667327395.985,125.977,-61.035,-75.684,613.770
1667327395.989,-94.727,-70.312,-92.773,-236.328
1667327395.993,-203.613,-91.309,-109.375,-770.996
1667327395.997,-33.203,-88.379,-96.680,-97.168
1667327396.000,125.000,-66.895,-78.613,633.789
1667327396.004,-37.109,-75.195,-101.074,60.059
1667327396.008,-221.680,-90.332,-118.652,-759.277
1667327396.012,-107.422,-85.449,-99.121,-357.422
1667327396.016,105.469,-67.383,-79.590,561.035
1667327396.018,38.086,-71.289,-95.703,356.445
1667327396.022,-194.824,-87.891,-115.234,-625.000
1667327396.026,-168.945,-86.426,-104.492,-606.934
1667327396.030,63.965,-70.801,-81.543,364.746
1667327396.034,74.219,-73.242,-82.520,484.375
1667327396.038,-169.434,-96.191,-111.328,-501.953
1667327396.042,-196.777,-94.238,-110.352,-708.984
1667327396.045,3.418,-79.102,-84.961,89.844
1667327396.049,116.211,-69.824,-75.684,620.117
1667327396.053,-77.148,-91.309,-115.723,-141.113
1667327396.057,-210.449,-99.609,-126.465,-770.020
1667327396.061,-57.617,-74.219,-78.125,-177.246
1667327396.063,125.488,-68.359,-75.684,636.719
1667327396.067,-15.137,-79.102,-106.934,142.090
1667327396.071,-211.914,-90.332,-108.887,-738.770
1667327396.075,-110.352,-86.426,-96.680,-417.969
1667327396.079,105.957,-76.660,-85.449,528.320
1667327396.083,55.176,-83.984,-92.285,419.434
1667327396.087,-175.781,-90.332,-104.980,-571.777
1667327396.090,-166.504,-79.590,-91.797,-633.301
1667327396.094,59.570,-75.684,-85.449,300.293
1667327396.098,107.910,-75.684,-92.285,597.168
1667327396.102,-134.277,-75.684,-104.980,-345.703
1667327396.106,-209.961,-89.355,-110.840,-751.953
1667327396.108,-9.277,-81.055,-90.332,27.832
1667327396.112,116.211,-70.312,-83.496,633.789
1667327396.116,-79.590,-78.613,-103.027,-94.238
1667327396.120,-222.168,-91.309,-110.352,-790.527
1667327396.124,-66.895,-90.332,-93.262,-227.539
1667327396.128,121.582,-80.078,-81.543,621.582
1667327396.132,-7.324,-83.984,-104.980,210.938
1667327396.135,-216.309,-93.750,-120.117,-711.426
1667327396.139,-132.324,-100.586,-114.746,-466.309
1667327396.143,84.961,-81.055,-89.844,485.352
1667327396.147,49.316,-65.430,-83.496,446.777
1667327396.151,-181.152,-86.914,-116.699,-536.133
1667327396.153,-186.523,-94.727,-115.723,-681.152
1667327396.157,13.184,-81.055,-87.402,204.590
1667327396.161,79.590,-84.961,-82.031,599.609
1667327396.165,-132.324,-100.098,-105.957,-291.016
1667327396.169,-207.031,-101.074,-111.328,-750.977
1667327396.173,-20.020,-96.680,-97.168,-6.348
1667327396.177,115.234,-80.566,-89.844,636.719
1667327396.180,-52.246,-93.262,-115.723,-3.418
1667327396.184,-211.426,-104.004,-112.305,-750.977
1667327396.188,-80.566,-79.102,-75.195,-290.039
1667327396.192,124.512,-71.777,-70.801,589.355
1667327396.196,29.785,-86.914,-100.586,282.227
1667327396.198,-189.941,-101.562,-114.746,-675.293
1667327396.202,-137.695,-97.168,-92.285,-546.875
1667327396.206,89.844,-84.473,-71.289,404.297
1667327396.210,94.238,-87.891,-85.449,497.070
1667327396.214,-146.973,-98.145,-104.980,-473.633
1667327396.218,-180.176,-101.074,-96.680,-704.590
1667327396.222,26.367,-91.309,-82.031,152.344
1667327396.225,121.094,-90.820,-95.215,637.207
1667327396.229,-99.609,-102.051,-111.816,-196.777
1667327396.233,-222.168,-97.168,-96.680,-792.969
1667327396.237,-42.969,-94.238,-84.473,-127.930
1667327396.241,125.977,-91.797,-80.078,636.230
1667327396.243,-35.645,-92.285,-87.891,59.570
1667327396.247,-211.914,-101.074,-100.586,-767.090
1667327396.251,-95.703,-101.074,-89.355,-359.375
1667327396.255,113.281,-93.262,-71.777,563.965
1667327396.259,44.922,-97.168,-90.332,350.586
1667327396.263,-184.082,-111.816,-107.422,-622.070
1667327396.267,-143.555,-123.047,-102.539,-571.777
1667327396.270,81.543,-119.141,-83.008,362.793
1667327396.274,91.309,-103.516,-69.824,538.086
1667327396.278,-144.531,-112.793,-95.215,-411.133
1667327396.282,-197.266,-128.418,-111.328,-735.352
1667327396.286,2.441,-119.629,-99.609,88.867
1667327396.288,110.840,-104.492,-77.637,642.578
1667327396.292,-89.355,-114.258,-91.309,-142.578
1667327396.296,-216.797,-124.023,-101.562,-786.133
1667327396.300,-61.523,-113.281,-80.078,-172.852
1667327396.304,117.188,-105.469,-69.336,638.184
1667327396.308,-23.926,-114.258,-86.914,138.184
1667327396.312,-221.191,-133.789,-120.605,-722.656
1667327396.315,-132.324,-130.371,-106.445,-414.062
1667327396.319,82.031,-104.492,-74.707,487.793
1667327396.323,48.828,-104.980,-84.961,390.625
1667327396.327,-180.664,-114.746,-97.656,-576.172
1667327396.331,-171.875,-110.840,-107.910,-628.906
1667327396.332,59.082,-100.098,-94.238,287.598
1667327396.336,122.559,-92.773,-81.543,588.867
1667327396.340,-101.562,-101.074,-94.238,-310.059
1667327396.344,-199.707,-120.117,-88.379,-738.770
1667327396.348,-18.066,-120.117,-66.406,19.043
1667327396.352,132.812,-113.281,-69.336,664.551
1667327396.356,-65.430,-120.117,-97.656,-59.570
1667327396.359,-231.934,-118.652,-92.773,-790.039
1667327396.363,-79.102,-107.910,-70.801,-242.676
1667327396.367,116.699,-108.398,-59.570,624.512
1667327396.371,-14.160,-116.211,-64.941,219.238
1667327396.375,-228.516,-123.047,-84.473,-703.613
1667327396.392,-144.531,-121.094,-88.379,-466.309
1667327396.396,78.125,-105.957,-66.406,461.914
1667327396.400,59.082,-102.051,-68.848,443.848
1667327396.404,-176.758,-114.258,-94.238,-528.809
1667327396.408,-198.730,-118.164,-82.520,-676.270
1667327396.412,29.297,-107.910,-53.223,217.773
1667327396.416,108.887,-107.910,-61.035,600.586
1667327396.419,-126.953,-115.234,-93.262,-276.855
1667327396.423,-216.797,-113.770,-93.262,-769.043
1667327396.427,-22.461,-116.699,-81.055,-27.344
1667327396.431,113.770,-104.004,-59.570,655.762
1667327396.435,-73.730,-101.562,-62.988,-36.133
1667327396.452,-227.539,-120.605,-93.262,-788.574
1667327396.456,-88.867,-114.258,-84.473,-302.734
1667327396.460,115.723,-98.145,-69.336,590.332
1667327396.464,17.578,-95.703,-77.148,282.715
1667327396.468,-205.566,-110.352,-94.238,-667.969
1667327396.472,-155.273,-112.305,-88.867,-523.438
1667327396.476,62.012,-94.727,-62.500,416.992
1667327396.479,62.500,-93.750,-67.383,500.000
1667327396.483,-158.691,-116.699,-97.168,-454.590
1667327396.487,-187.988,-114.258,-95.215,-692.383
1667327396.491,10.742,-87.402,-69.336,139.160
1667327396.495,103.516,-88.379,-72.754,609.375
1667327396.497,-113.281,-105.957,-93.750,-229.980
1667327396.501,-217.773,-116.211,-88.379,-784.668
1667327396.505,-41.504,-105.469,-70.312,-110.352
1667327396.509,126.465,-96.680,-72.266,635.742
1667327396.513,-34.180,-106.934,-95.703,52.246
1667327396.517,-212.891,-103.516,-89.844,-766.113
1667327396.521,-95.215,-96.680,-76.660,-363.770
1667327396.524,119.141,-86.914,-71.289,562.500
1667327396.528,40.527,-90.820,-71.777,353.516
1667327396.532,-198.242,-104.004,-81.543,-644.043
1667327396.536,-159.668,-100.586,-69.336,-605.957
1667327396.540,70.801,-94.238,-56.641,329.102
1667327396.527,104.980,-104.492,-80.566,549.316
1667327396.531,-137.695,-100.098,-97.168,-395.996
1667327396.535,-196.289,-85.449,-75.684,-743.652
1667327396.539,17.578,-86.914,-61.523,83.008
1667327396.543,129.883,-84.961,-67.871,643.555
1667327396.547,-74.219,-94.727,-79.590,-141.113
1667327396.551,-199.219,-103.027,-78.125,-784.668
1667327396.554,-38.086,-97.168,-70.801,-162.109
1667327396.558,135.742,-90.332,-61.035,649.414
1667327396.562,-11.719,-94.238,-72.754,140.625
1667327396.566,-206.543,-95.215,-90.332,-742.188
1667327396.570,-104.004,-104.980,-95.215,-416.016
1667327396.572,113.281,-99.121,-74.219,524.902
1667327396.576,61.035,-78.613,-77.637,399.902
1667327396.580,-168.457,-88.379,-94.238,-579.590
1667327396.584,-157.715,-96.191,-75.684,-639.160
1667327396.588,55.664,-90.332,-62.012,269.531
1667327396.592,102.539,-93.750,-67.383,573.730
1667327396.596,-136.230,-104.980,-85.938,-344.727
1667327396.599,-212.891,-111.328,-99.121,-732.910
1667327396.603,-20.020,-98.633,-83.008,47.363
1667327396.607,105.957,-79.102,-60.059,637.207
1667327396.611,-80.078,-92.285,-72.754,-90.820
1667327396.615,-219.727,-98.145,-83.496,-784.180
1667327396.617,-72.754,-88.379,-67.871,-242.188
1667327396.621,119.629,-83.008,-55.664,604.004
1667327396.625,-5.859,-96.680,-81.055,197.266
1667327396.629,-219.238,-104.004,-94.238,-715.332
1667327396.633,-137.695,-95.703,-80.566,-480.957
1667327396.637,81.543,-91.797,-75.195,463.867
1667327396.641,61.035,-96.191,-86.426,470.703
1667327396.644,-172.852,-107.422,-102.539,-505.859
1667327396.648,-190.918,-100.586,-103.516,-679.688
1667327396.652,30.762,-86.426,-89.844,205.566
1667327396.656,111.816,-85.938,-75.684,597.656
1667327396.660,-115.723,-97.168,-98.633,-290.527
1667327396.662,-210.449,-94.727,-100.586,-770.020
1667327396.666,-28.320,-83.984,-71.777,-54.199
1667327396.670,123.535,-72.754,-56.641,634.277
1667327396.674,-45.410,-81.543,-79.102,-13.184
1667327396.678,-206.543,-96.191,-103.027,-773.926
1667327396.682,-55.176,-84.473,-88.379,-258.789
1667327396.686,158.691,-77.148,-83.008,664.062
1667327396.689,37.109,-84.961,-92.773,314.453
1667327396.693,-202.148,-88.867,-85.449,-670.410
1667327396.697,-137.207,-92.285,-86.426,-528.809
1667327396.701,84.961,-87.891,-80.078,415.039
1667327396.705,81.055,-80.566,-71.289,509.277
1667327396.707,-156.738,-89.355,-84.473,-464.844
1667327396.711,-195.801,-98.633,-91.309,-707.031
1667327396.715,14.160,-87.402,-82.031,145.508
1667327396.719,117.188,-71.777,-78.613,618.164
1667327396.723,-96.680,-80.078,-80.078,-211.914
1667327396.727,-205.566,-100.098,-101.074,-761.719
1667327396.731,-28.809,-95.703,-95.703,-95.215
1667327396.734,132.324,-71.777,-63.477,638.184
1667327396.738,-22.949,-77.637,-84.473,67.871
1667327396.742,-202.148,-95.703,-111.328,-746.094
1667327396.746,-92.773,-89.355,-95.215,-366.211
1667327396.750,110.840,-76.172,-70.801,537.598
1667327396.767,43.457,-79.590,-81.055,342.773
1667327396.771,-189.453,-91.309,-105.469,-640.137
1667327396.775,-151.855,-88.379,-97.656,-560.547
1667327396.779,83.008,-80.078,-74.707,387.207
1667327396.783,92.773,-84.473,-92.773,542.480
1667327396.787,-148.926,-96.191,-118.652,-396.973
1667327396.791,-204.102,-98.145,-104.980,-725.098
1667327396.794,-8.789,-91.797,-81.055,79.102
1667327396.798,112.305,-79.102,-74.219,624.023
1667327396.802,-80.566,-95.703,-108.398,-128.418
1667327396.806,-216.797,-100.098,-118.164,-756.836
1667327396.810,-61.035,-79.590,-91.797,-168.945
1667327396.812,123.047,-83.008,-82.031,633.301
1667327396.816,-18.066,-94.727,-91.309,136.230
1667327396.820,-214.844,-97.168,-97.168,-737.793
1667327396.824,-117.676,-88.867,-96.191,-425.781
1667327396.828,101.562,-83.496,-94.727,512.695
1667327396.832,50.293,-87.891,-102.051,416.016
1667327396.836,-190.918,-94.727,-112.793,-565.918
1667327396.839,-177.734,-91.309,-111.816,-628.906
1667327396.843,51.270,-86.426,-110.840,285.645
1667327396.847,97.168,-85.938,-98.145,581.055
1667327396.851,-150.879,-97.656,-89.355,-356.445
1667327396.855,-221.680,-100.098,-96.680,-766.602
1667327396.857,-20.996,-84.473,-87.891,5.371
1667327396.861,115.723,-79.102,-81.543,632.324
1667327396.865,-79.590,-83.984,-110.352,-84.961
1667327396.869,-229.980,-90.332,-119.141,-790.039
1667327396.873,-82.031,-88.379,-105.469,-231.445
1667327396.877,105.469,-80.078,-91.797,610.352
1667327396.881,-10.742,-84.961,-100.098,190.430
1667327396.884,-213.867,-97.168,-128.906,-714.355
1667327396.888,-133.789,-100.098,-131.836,-472.656
1667327396.892,78.613,-84.473,-102.051,458.008
1667327396.896,49.316,-71.289,-94.238,430.176
1667327396.900,-173.340,-89.844,-117.188,-525.879
1667327396.902,-183.594,-97.168,-126.953,-665.039,0
1667327396.906,24.902,-76.172,-103.027,209.473,0
1667327396.910,98.633,-66.895,-92.773,595.703,0
1667327396.914,-125.488,-85.938,-107.422,-283.691,0
1667327396.918,-220.215,-90.820,-108.887,-773.438,0
1667327396.922,-41.504,-81.543,-97.168,-59.570,0
1667327396.926,108.887,-73.730,-92.285,629.883,0
1667327396.929,-59.570,-84.961,-111.816,-9.277,0
1667327396.933,-222.168,-95.703,-110.352,-767.578,0
1667327396.937,-88.867,-75.684,-88.867,-301.270,0
1667327396.941,118.164,-66.895,-83.496,588.867,0
1667327396.945,13.184,-74.219,-94.238,279.297,0
1667327396.947,-209.961,-81.055,-109.375,-678.223,0
1667327396.951,-155.762,-81.543,-103.027,-548.828,0
1667327396.955,70.801,-74.707,-86.426,400.879,0
1667327396.959,73.242,-74.707,-96.680,504.395,0
1667327396.963,-167.969,-82.031,-121.094,-470.215,0
1667327396.967,-192.383,-83.496,-115.234,-703.125,0
1667327396.971,18.066,-76.660,-97.656,139.160,0
1667327396.974,111.816,-82.520,-102.051,623.535,0
1667327396.978,-112.793,-92.773,-110.352,-191.895,0
1667327396.982,-224.609,-83.984,-109.863,-784.668,0
1667327396.986,-39.551,-78.125,-111.816,-120.605,0
1667327396.990,126.465,-70.312,-109.375,639.648,0
1667327396.993,-27.832,-75.684,-125.000,69.336,0
1667327396.997,-209.473,-83.496,-130.859,-757.812,0
1667327397.001,-98.145,-78.125,-113.770,-367.676,0
1667327397.005,110.840,-68.848,-91.797,562.500,0
1667327397.009,30.762,-73.242,-99.609,312.500,0
1667327397.013,-197.266,-90.820,-119.629,-682.129,0
1667327397.017,-151.855,-93.262,-128.418,-567.383,0
1667327397.020,73.730,-83.496,-110.840,370.117,0
1667327397.024,90.332,-67.871,-84.961,545.410,0
1667327397.028,-149.414,-74.707,-106.445,-393.555,0
1667327397.032,-204.590,-80.566,-114.746,-718.750,0
1667327397.036,-4.395,-69.824,-92.773,75.195,0
1667327397.052,111.816,-63.965,-88.867,614.258,0
1667327397.056,-95.703,-78.613,-109.375,-158.691,0
1667327397.060,-226.074,-91.797,-110.840,-784.180,0
1667327397.064,-60.059,-81.543,-98.145,-161.133,0
1667327397.068,121.094,-67.383,-95.215,643.555,0
1667327397.072,-14.160,-75.684,-107.910,143.555,0
1667327397.076,-208.984,-97.656,-135.254,-725.098,0
1667327397.079,-124.023,-92.285,-116.699,-425.781,0
1667327397.083,87.891,-67.383,-88.867,492.676,0
1667327397.087,51.758,-73.242,-122.559,406.738,0
1667327397.091,-181.152,-88.867,-133.789,-570.312,0
1667327397.095,-172.852,-84.961,-105.957,-633.301,0
1667327397.097,54.199,-69.824,-85.938,275.879,0
1667327397.101,107.910,-69.824,-98.145,569.336,0
1667327397.105,-129.395,-89.844,-123.047,-343.750,0
1667327397.109,-207.031,-79.102,-113.281,-749.023,0
1667327397.113,-11.719,-64.941,-91.797,24.414,0
1667327397.117,121.582,-71.777,-95.215,651.855,0
1667327397.121,-69.824,-77.637,-129.883,-59.082,0
1667327397.124,-222.168,-73.730,-136.230,-771.973,0
1667327397.128,-76.172,-67.871,-98.145,-236.816,0
1667327397.132,118.164,-75.684,-85.449,613.770,0
1667327397.136,-1.953,-84.473,-104.492,215.332,0
1667327397.140,-225.586,-82.031,-103.027,-715.332,0
1667327397.142,-144.531,-75.684,-92.773,-495.117,0
1667327397.146,88.379,-67.383,-94.727,465.820,0
1667327397.150,60.547,-70.312,-94.727,464.355,0
1667327397.154,-180.176,-79.102,-104.980,-522.461,0
1667327397.158,-187.500,-80.078,-106.445,-681.641,0
1667327397.162,30.273,-72.266,-85.938,199.707,0
1667327397.166,102.539,-70.801,-98.145,588.867,0
1667327397.169,-111.328,-76.660,-122.559,-286.133,0
1667327397.173,-204.102,-77.637,-112.793,-779.297,0
1667327397.177,-20.996,-78.613,-92.285,-23.926,0
1667327397.181,124.512,-66.406,-78.613,669.434,0
1667327397.185,-57.129,-59.570,-84.473,-22.461,0
1667327397.188,-218.750,-81.543,-104.492,-792.969,0
1667327397.192,-89.844,-81.543,-101.074,-312.500,0
1667327397.196,112.793,-60.059,-71.777,575.195,0
1667327397.200,17.090,-65.430,-83.984,277.832,0
1667327397.204,-205.566,-86.426,-121.094,-650.879,0
1667327397.208,-151.367,-88.867,-116.211,-523.438,0
1667327397.212,70.312,-70.312,-91.797,404.785,0
1667327397.215,70.801,-60.059,-92.285,501.465,0
1667327397.219,-151.367,-77.148,-112.305,-440.918,0
1667327397.223,-186.523,-87.891,-112.793,-673.340,0
1667327397.227,11.719,-61.035,-84.961,149.902,0
1667327397.231,115.234,-49.316,-82.031,620.117,0
1667327397.233,-91.309,-65.430,-99.121,-208.008,0
1667327397.237,-208.496,-75.684,-102.539,-780.762,0
1667327397.241,-38.086,-69.336,-93.262,-109.375,0
1667327397.245,127.930,-58.105,-88.867,640.137,0
1667327397.249,-30.273,-69.336,-107.910,64.941,0
1667327397.253,-210.449,-79.590,-118.164,-758.301,0
1667327397.257,-100.586,-73.730,-101.074,-354.980,0
1667327397.260,108.887,-62.500,-82.031,552.246,0
1667327397.264,42.969,-75.195,-103.027,355.957,0
1667327397.268,-195.801,-90.820,-124.023,-612.305,0
1667327397.272,-170.410,-74.219,-99.609,-602.539,0
1667327397.276,55.176,-70.801,-85.938,330.078,0
1667327397.279,81.543,-76.660,-93.750,536.621,0
1667327397.283,-150.879,-82.031,-110.840,-405.762,0
1667327397.287,-204.590,-83.496,-119.629,-742.188,0
1667327397.291,3.418,-76.660,-101.562,74.219,0
1667327397.295,115.234,-73.242,-83.008,630.371,0
1667327397.299,-93.262,-83.496,-102.539,-141.113,0
1667327397.303,-217.773,-83.496,-111.328,-771.973,0
1667327397.306,-44.922,-73.730,-99.609,-151.855,0
1667327397.310,130.859,-70.312,-90.332,649.902,0
1667327397.314,-22.949,-75.684,-90.820,128.906,0
1667327397.318,-211.914,-88.379,-107.422,-735.352,0
1667327397.322,-112.305,-85.938,-103.516,-411.133,0
1667327397.323,98.145,-69.824,-81.055,510.742,0
1667327397.327,54.688,-64.453,-79.590,403.320,0
1667327397.331,-174.316,-76.172,-101.562,-570.801,0
1667327397.335,-165.527,-76.660,-91.797,-631.348,0
1667327397.339,55.176,-60.547,-68.359,277.344,0
1667327397.343,103.027,-60.547,-70.801,577.637,0
1667327397.347,-126.465,-69.824,-96.680,-329.102,0
1667327397.350,-197.754,-82.520,-118.164,-720.215,0
1667327397.354,-17.090,-83.008,-101.074,36.621,0
1667327397.358,107.422,-66.406,-81.055,619.141,0
1667327397.362,-79.590,-76.172,-101.074,-89.844,0
1667327397.366,-227.051,-85.938,-107.422,-784.180,0
1667327397.368,-75.684,-74.219,-95.703,-246.094,0
1667327397.372,114.258,-59.570,-82.520,606.445,0
1667327397.376,-2.930,-72.754,-95.703,217.773,0
1667327397.380,-207.520,-82.031,-118.652,-709.961,0
1667327397.384,-133.301,-76.172,-115.234,-496.582,0
1667327397.388,87.402,-73.242,-87.891,445.801,0
1667327397.392,67.383,-77.637,-88.867,452.148,0
1667327397.395,-169.434,-84.961,-104.980,-510.742,0
1667327397.399,-187.500,-72.754,-85.938,-676.758,0
1667327397.403,34.668,-59.570,-66.406,212.402,0
1667327397.407,113.770,-58.594,-68.848,608.398,0
1667327397.411,-110.840,-66.895,-93.262,-272.461,0
1667327397.412,-208.008,-70.312,-92.285,-767.090,0
1667327397.416,-26.367,-68.848,-87.402,-46.387,0
1667327397.420,124.512,-61.523,-85.938,643.066,0
1667327397.424,-55.664,-68.848,-93.750,-4.395,0
1667327397.428,-217.285,-82.520,-104.980,-764.648,0
1667327397.432,-87.402,-72.754,-89.355,-302.734,0
1667327397.436,109.863,-73.242,-76.660,590.820,0
1667327397.439,17.090,-78.613,-85.938,295.898,0
1667327397.443,-212.402,-74.707,-92.285,-686.035,0
1667327397.447,-158.691,-69.824,-97.168,-553.223,0
1667327397.451,73.242,-60.059,-89.844,409.668,0
1667327397.455,81.055,-59.082,-77.637,503.418,0
1667327397.487,-147.949,-67.871,-88.867,-457.520,0
1667327397.491,-181.641,-78.613,-96.680,-690.430,0
1667327397.495,27.832,-74.219,-92.773,155.762,0
1667327397.499,124.023,-57.617,-83.008,619.141,0
1667327397.503,-91.309,-69.336,-91.309,-211.426,0
1667327397.507,-208.496,-94.238,-103.027,-770.508,0
1667327397.511,-44.922,-91.309,-87.891,-115.723,0
1667327397.514,120.117,-63.965,-64.941,615.723,0
1667327397.518,-32.715,-67.871,-88.379,50.293,0
1667327397.522,-207.031,-89.844,-114.746,-745.117,0
1667327397.526,-94.238,-81.055,-99.121,-354.004,0
1667327397.530,99.609,-59.082,-91.309,529.785,0
1667327397.504,22.461,-69.824,-113.770,318.359,0
1667327397.508,-205.566,-90.332,-127.441,-643.066,0
1667327397.512,-171.387,-82.031,-120.605,-602.539,0
1667327397.516,54.688,-62.500,-110.840,326.660,0
1667327397.520,80.566,-55.176,-106.934,523.438,0
1667327397.524,-159.668,-70.801,-115.723,-424.316,0
1667327397.528,-218.750,-79.102,-118.164,-756.348,0
1667327397.531,-12.695,-68.848,-109.375,47.852,0
1667327397.535,104.980,-64.941,-106.445,599.121,0
1667327397.539,-101.074,-86.426,-125.977,-162.109,0
1667327397.543,-232.422,-86.914,-129.883,-791.016,0
1667327397.547,-66.406,-69.824,-107.910,-185.547,0
1667327397.562,114.258,-67.383,-101.074,606.934,0
1667327397.566,-20.508,-80.078,-132.324,137.207,0
1667327397.570,-226.562,-81.543,-131.836,-741.211,0
1667327397.574,-137.695,-68.848,-106.445,-452.637,0
1667327397.578,90.332,-72.266,-95.703,495.605,0
1667327397.582,46.875,-87.402,-103.516,403.320,0
1667327397.586,-189.453,-83.008,-114.258,-580.566,0
1667327397.589,-173.828,-68.359,-107.910,-633.301,0
1667327397.593,51.758,-69.336,-98.633,292.480,0
1667327397.597,104.492,-62.988,-105.957,578.613,0
1667327397.601,-127.930,-66.406,-112.793,-348.145,0
1667327397.605,-204.102,-87.402,-105.469,-745.605,0
1667327397.608,-6.836,-78.125,-88.379,25.879,0
1667327397.612,128.418,-68.359,-77.148,640.625,0
1667327397.616,-63.965,-84.961,-93.750,-75.684,0
1667327397.620,-215.332,-85.449,-115.234,-774.414,0
1667327397.624,-63.965,-75.195,-104.004,-220.215,0
1667327397.628,118.164,-66.895,-83.496,574.219,0
1667327397.632,-7.812,-76.660,-95.215,157.227,0
1667327397.635,-207.520,-85.938,-105.469,-708.008,0
1667327397.639,-124.512,-91.797,-106.445,-462.402,0
1667327397.643,88.379,-81.055,-87.402,487.793,0
1667327397.647,58.105,-66.895,-76.172,456.543,0
1667327397.651,-164.551,-86.914,-94.727,-518.066,0
1667327397.653,-179.199,-90.820,-99.609,-672.363,0
1667327397.657,29.297,-64.941,-88.867,204.102,0
1667327397.661,102.539,-58.594,-83.496,583.496,0
1667327397.665,-110.352,-80.566,-104.492,-281.250,0
1667327397.669,-203.125,-87.891,-115.234,-761.719,0
1667327397.673,-26.367,-79.590,-97.656,-44.922,0
1667327397.677,120.605,-66.406,-84.473,627.441,0
1667327397.680,-47.852,-77.637,-102.539,-11.719,0
1667327397.684,-215.332,-87.891,-99.121,-768.066,0
1667327397.688,-96.680,-65.430,-67.383,-319.824,0
1667327397.692,113.281,-53.711,-53.711,575.195,0
1667327397.696,25.879,-58.594,-68.848,279.297,0
1667327397.697,-198.730,-73.730,-97.168,-675.293,0
1667327397.701,-147.949,-71.289,-95.703,-541.992,0
1667327397.705,82.031,-66.895,-74.707,406.738,0
1667327397.709,83.496,-77.148,-79.102,501.953,0
1667327397.713,-158.691,-81.543,-103.027,-474.121,0
1667327397.717,-189.941,-80.566,-95.703,-714.355,0
1667327397.721,19.043,-67.871,-67.383,144.043,0
1667327397.724,115.234,-77.148,-83.496,626.953,0
1667327397.728,-106.934,-86.914,-97.168,-203.125,0
1667327397.732,-224.609,-73.730,-84.473,-785.645,0
1667327397.736,-36.621,-74.707,-80.566,-121.582,0
1667327397.740,136.230,-69.824,-77.637,633.789,0
1667327397.742,-34.180,-70.801,-83.496,57.129,0
1667327397.746,-219.727,-82.031,-94.238,-761.719,0
1667327397.750,-97.168,-73.242,-97.168,-355.469,0
1667327397.754,109.863,-58.594,-85.938,554.688,0
1667327397.758,33.691,-64.453,-92.285,340.820,0
1667327397.762,-192.383,-83.008,-117.676,-624.512,0
1667327397.766,-158.691,-91.309,-110.352,-579.590,0
1667327397.769,63.477,-78.125,-82.031,342.285,0
1667327397.773,84.961,-61.035,-78.125,529.297,0
1667327397.777,-149.902,-75.684,-97.656,-404.297,0
1667327397.781,-208.008,-84.473,-100.098,-731.445,0
1667327397.785,-5.371,-67.383,-81.055,76.660,0
1667327397.787,114.258,-56.641,-77.637,633.789,0
1667327397.791,-86.426,-65.918,-101.562,-140.137,0
1667327397.795,-214.844,-80.078,-104.492,-776.855,0
1667327397.799,-57.129,-75.684,-77.637,-166.016,0
1667327397.803,125.000,-69.336,-64.453,640.625,0
1667327397.807,-14.160,-79.102,-86.426,142.090,0
1667327397.811,-210.449,-93.262,-111.328,-716.309,0
1667327397.814,-115.723,-83.496,-100.586,-412.109,0
1667327397.818,95.215,-55.664,-68.848,500.977,0
1667327397.822,45.898,-59.570,-81.543,379.883,0
1667327397.826,-184.570,-78.125,-107.910,-587.891,0
1667327397.830,-168.457,-69.336,-89.844,-613.770,0
1667327397.847,50.293,-54.199,-62.988,281.250,0
1667327397.851,102.539,-65.918,-68.848,578.613,0
1667327397.855,-126.465,-81.543,-100.586,-330.566,0
1667327397.859,-203.125,-68.848,-104.492,-735.840,0
1667327397.863,-15.137,-56.152,-78.125,24.902,0
1667327397.867,135.254,-67.383,-72.266,661.621,0
1667327397.871,-44.434,-84.473,-94.238,-51.758,0
1667327397.874,-213.379,-84.473,-105.469,-780.273,0
1667327397.878,-82.520,-63.477,-89.355,-250.977,0
1667327397.882,119.141,-56.152,-79.590,609.375,0
1667327397.886,13.672,-66.895,-99.609,219.238,0
1667327397.890,-193.359,-63.965,-117.676,-703.613,0
1667327397.892,-107.910,-61.035,-108.398,-469.727,0
1667327397.896,125.000,-48.828,-83.984,479.980,0
1667327397.900,112.305,-36.621,-88.379,496.582,0
1667327397.904,-131.836,-46.875,-112.305,-517.090,0
1667327397.908,-116.211,-51.758,-109.375,-569.824,0
1667327397.912,110.352,-40.039,-94.238,360.840,0
1667327397.916,150.879,-37.598,-88.379,601.074,0
1667327397.919,-68.848,-51.758,-98.633,-248.047,0
1667327397.923,-174.316,-58.105,-108.887,-733.398,0
1667327397.927,11.719,-62.012,-106.934,-5.859,0
1667327397.931,151.855,-56.641,-101.074,682.129,0
1667327397.935,-40.527,-52.246,-113.770,3.418,0
1667327397.937,-194.336,-68.359,-120.605,-762.207,0
1667327397.941,-62.012,-60.547,-95.703,-286.621,0
1667327397.945,135.742,-41.504,-76.660,588.379,0
1667327397.949,40.527,-54.199,-95.703,286.133,0
1667327397.953,-174.316,-63.965,-117.188,-646.973,0
1667327397.957,-119.141,-62.012,-112.793,-520.508,0
1667327397.961,92.773,-59.082,-85.938,399.902,0
1667327397.964,95.703,-57.617,-84.473,492.676,0
1667327397.968,-135.254,-75.195,-116.699,-456.055,0
1667327397.972,-177.246,-76.660,-110.352,-684.082,0
1667327397.976,22.461,-55.176,-83.008,146.484,0
1667327397.980,122.559,-51.270,-90.332,610.840,0
1667327397.982,-86.426,-71.289,-116.699,-198.730,0
1667327397.986,-204.590,-75.684,-105.469,-749.512,0
1667327397.990,-38.086,-61.035,-83.496,-94.238,0
1667327397.994,136.230,-59.082,-87.402,654.785,0
1667327397.998,-18.555,-76.660,-95.215,63.965,0
1667327398.002,-188.965,-83.984,-100.098,-697.266,0
1667327398.006,-75.684,-69.336,-90.820,-272.461,0
1667327398.009,116.211,-54.199,-67.871,548.828,0
1667327398.013,43.457,-67.871,-88.379,352.539,0
1667327398.017,-190.918,-79.590,-108.398,-610.352,0
1667327398.021,-159.668,-67.871,-101.074,-587.891,0
1667327398.025,65.430,-60.547,-90.820,337.891,0
1667327398.027,92.773,-65.918,-80.078,538.086,0
1667327398.031,-144.043,-77.637,-97.168,-402.832,0
1667327398.035,-197.754,-72.754,-99.609,-734.375,0
1667327398.039,19.043,-59.082,-73.242,98.145,0
1667327398.043,127.930,-50.781,-62.988,600.586,0
1667327398.047,-81.055,-68.359,-84.961,-196.777,0
1667327398.051,-214.355,-78.613,-88.379,-770.508,0
1667327398.054,-65.430,-77.637,-80.566,-154.785,0
1667327398.058,108.398,-75.195,-78.613,637.695,0
1667327398.062,-40.039,-72.266,-84.961,111.816,0
1667327398.066,-221.680,-79.590,-109.375,-750.000,0
1667327398.070,-111.816,-71.289,-98.633,-429.199,0
1667327398.072,98.633,-54.688,-74.707,489.746,0
1667327398.076,46.387,-56.152,-86.426,392.578,0
1667327398.080,-179.199,-70.801,-95.703,-569.336,0
1667327398.084,-170.898,-76.660,-82.520,-622.070,0
1667327398.088,48.340,-64.941,-74.707,288.086,0
1667327398.092,104.980,-63.477,-77.637,583.496,0
1667327398.096,-125.977,-77.637,-88.379,-334.961,0
1667327398.099,-202.637,-95.215,-102.051,-727.539,0
1667327398.103,-13.672,-75.195,-80.566,41.016,0
1667327398.107,118.652,-50.293,-64.453,629.395,0
1667327398.111,-70.312,-79.102,-91.309,-83.496,0
1667327398.115,-220.703,-91.309,-101.074,-769.531,0
1667327398.117,-75.195,-71.289,-80.078,-240.723,0
1667327398.121,114.746,-67.383,-65.430,598.633,0
1667327398.125,-1.953,-90.332,-91.309,216.797,0
1667327398.129,-203.613,-92.285,-104.492,-687.012,0
1667327398.133,-128.418,-75.684,-90.820,-480.957,0
1667327398.137,86.426,-69.824,-70.312,448.730,0
1667327398.141,65.430,-78.125,-87.891,463.867,0
1667327398.144,-164.062,-89.355,-116.699,-497.070,0
1667327398.148,-178.223,-76.660,-94.238,-669.922,0
1667327398.152,42.969,-61.035,-67.871,205.078,0
1667327398.156,118.164,-59.082,-65.918,597.656,0
1667327398.160,-105.957,-70.801,-84.961,-271.973,0
1667327398.193,-198.242,-78.125,-92.285,-753.906,0
1667327398.197,-22.461,-72.266,-79.102,-39.062,0
1667327398.201,118.652,-67.383,-76.660,638.184,0
1667327398.205,-64.941,-77.637,-102.539,-21.973,0
1667327398.209,-229.492,-87.891,-113.281,-776.367,0
1667327398.213,-94.727,-81.543,-92.773,-293.457,0
1667327398.217,116.211,-77.148,-78.125,598.633,0
1667327398.220,17.090,-80.566,-88.867,290.039,0
1667327398.224,-216.797,-78.125,-97.656,-671.387,0
1667327398.228,-152.832,-78.125,-93.750,-540.039,0
1667327398.232,66.895,-76.660,-81.055,390.137,0
1667327398.236,59.570,-79.590,-84.473,482.422,0
1667327398.222,-171.387,-90.820,-104.492,-487.305,0
1667327398.226,-203.613,-93.750,-97.656,-678.711,0
1667327398.230,8.301,-87.891,-80.566,189.941,0
1667327398.234,101.562,-70.801,-73.242,598.633,0
1667327398.238,-110.840,-73.730,-88.867,-234.863,0
1667327398.242,-213.867,-86.914,-113.281,-775.391,0
1667327398.246,-46.875,-76.660,-94.238,-111.328,0
1667327398.249,109.863,-63.965,-70.801,615.723,0
1667327398.253,-47.852,-71.289,-87.891,47.363,0
1667327398.257,-219.238,-89.844,-117.188,-743.164,0
1667327398.261,-103.027,-88.379,-101.074,-343.750,0
1667327398.265,107.422,-62.500,-67.383,539.551,0
1667327398.267,36.621,-60.059,-79.102,323.242,0
1667327398.271,-189.453,-84.961,-107.910,-619.629,0
1667327398.275,-155.273,-86.426,-98.633,-564.941,0
1667327398.279,61.523,-53.711,-59.082,333.008,0
1667327398.283,98.633,-46.875,-71.289,529.785,0
1667327398.287,-119.141,-64.941,-103.027,-383.301,0
1667327398.291,-170.898,-68.848,-99.609,-706.055,0
1667327398.294,22.949,-64.941,-72.754,89.844,0
1667327398.298,122.070,-66.895,-67.871,624.023,0
1667327398.302,-95.703,-89.355,-101.562,-146.484,0
1667327398.306,-242.676,-103.027,-99.609,-774.414,0
1667327398.310,-99.609,-79.102,-62.988,-198.242,0
1667327398.312,85.449,-71.777,-43.945,593.750,0
1667327398.316,-52.734,-89.355,-61.035,100.098,0
1667327398.320,-250.488,-95.703,-75.684,-763.184,0
1667327398.324,-159.668,-90.820,-66.406,-454.590,0
1667327398.328,59.082,-82.520,-54.199,465.820,0
1667327398.332,15.625,-86.914,-65.918,362.793,0
1667327398.336,-218.262,-93.750,-88.379,-610.840,0
1667327398.339,-202.148,-91.309,-93.750,-665.039,0
1667327398.343,29.785,-92.773,-73.730,259.766,0
1667327398.347,80.078,-83.008,-52.246,562.012,0
1667327398.351,-153.320,-75.195,-57.129,-360.840,0
1667327398.355,-215.332,-83.008,-63.965,-757.812,0
1667327398.357,-23.926,-77.148,-54.688,9.766,0
1667327398.361,104.492,-65.430,-49.316,629.883,0
1667327398.365,-82.031,-74.707,-64.453,-81.055,0
1667327398.369,-222.656,-80.078,-75.684,-766.602,0
1667327398.373,-78.613,-78.613,-57.617,-223.145,0
1667327398.377,110.840,-74.707,-32.227,607.422,0
1667327398.381,-11.230,-77.148,-36.621,200.195,0
1667327398.384,-221.680,-84.473,-51.270,-707.031,0
1667327398.388,-138.672,-88.867,-69.336,-466.797,0
1667327398.392,86.426,-70.801,-49.316,471.680,0
1667327398.396,62.012,-54.199,-40.527,446.289,0
1667327398.400,-166.016,-77.148,-79.102,-513.184,0
1667327398.417,-177.734,-79.102,-71.289,-656.738,0
1667327398.421,26.367,-65.918,-46.387,204.102,0
1667327398.425,97.168,-63.477,-54.199,578.613,0
1667327398.429,-121.094,-76.660,-76.172,-285.156,0
1667327398.433,-214.355,-83.496,-76.172,-761.230,0
1667327398.437,-38.086,-74.707,-64.453,-55.664,0
1667327398.441,116.699,-65.430,-60.059,618.164,0
1667327398.444,-48.828,-80.566,-83.008,-26.855,0
1667327398.448,-215.332,-94.727,-95.703,-772.461,0
1667327398.452,-91.797,-76.172,-71.777,-301.270,0
1667327398.456,109.375,-65.430,-62.988,579.590,0
1667327398.460,21.973,-76.660,-76.660,277.832,0
1667327398.447,-200.195,-83.008,-79.590,-659.668,0
1667327398.451,-160.645,-77.148,-74.707,-542.969,0
1667327398.455,61.035,-70.801,-59.082,381.348,0
1667327398.459,65.430,-71.777,-71.777,488.770,90
1667327398.463,-162.598,-80.078,-105.957,-445.312,0
1667327398.467,-192.871,-78.125,-96.191,-681.152,0
1667327398.471,12.207,-73.242,-64.453,130.859,0
1667327398.474,106.445,-62.988,-46.875,593.262,0
1667327398.478,-105.957,-59.082,-62.988,-226.074,0
1667327398.482,-212.891,-63.965,-71.289,-766.602,0
1667327398.486,-43.457,-61.035,-59.570,-103.027,0
1667327398.490,130.859,-62.988,-67.383,660.156,0
1667327398.492,-25.879,-63.477,-76.172,89.844,0
1667327398.496,-211.426,-60.547,-85.938,-750.977,0
1667327398.500,-94.238,-64.453,-81.543,-354.004,0
1667327398.504,107.910,-55.176,-56.152,541.016,0
1667327398.508,40.527,-49.805,-63.477,337.402,0
1667327398.512,-166.504,-57.617,-77.637,-611.816,0
1667327398.516,-132.324,-67.871,-81.543,-573.242,0
1667327398.519,75.684,-57.129,-62.500,345.703,0
1667327398.523,93.262,-41.504,-47.852,529.785,0
1667327398.527,-133.789,-62.012,-82.520,-406.250,0
1667327398.531,-185.059,-71.289,-95.215,-722.168,0
1667327398.535,15.625,-56.152,-72.266,87.891,0
1667327398.537,128.906,-48.340,-59.082,624.023,0
1667327398.541,-74.219,-62.500,-83.984,-155.273,0
1667327398.545,-209.961,-73.242,-91.797,-781.738,0
1667327398.549,-62.988,-62.988,-66.895,-180.664,0
1667327398.553,119.141,-54.688,-59.570,614.746,0
1667327398.557,-7.812,-67.383,-78.613,131.348,0
1667327398.561,-190.918,-86.914,-104.004,-697.266,0
1667327398.564,-99.121,-77.148,-90.820,-388.184,0
1667327398.568,104.004,-52.734,-57.617,491.699,0
1667327398.572,51.758,-60.547,-71.289,382.812,0
1667327398.576,-177.734,-80.566,-99.609,-577.637,0
1667327398.580,-166.504,-71.289,-92.285,-634.277,0
1667327398.582,42.480,-55.664,-78.125,256.836,0
1667327398.586,90.332,-61.523,-81.055,555.664,0
1667327398.590,-136.719,-67.871,-92.773,-337.402,0
1667327398.594,-208.008,-68.848,-96.191,-739.746,0
1667327398.598,-16.113,-67.871,-79.590,11.230,0
1667327398.602,120.605,-69.336,-73.242,633.789,0
1667327398.606,-62.988,-79.102,-92.773,-68.359,0
1667327398.609,-212.891,-73.242,-96.191,-778.320,0
1667327398.613,-72.754,-63.477,-81.543,-248.047,0
1667327398.617,121.094,-57.129,-63.965,599.121,0
1667327398.621,1.465,-62.012,-79.102,201.172,0
1667327398.625,-213.379,-73.730,-107.422,-714.355,0
1667327398.643,-143.066,-76.172,-98.633,-488.770,0
1667327398.647,83.496,-60.547,-72.754,454.590,0
1667327398.651,62.500,-56.152,-78.125,447.266,0
1667327398.655,-176.758,-71.777,-99.609,-518.066,0
1667327398.659,-179.688,-72.754,-98.633,-665.039,0
1667327398.663,38.574,-61.035,-77.637,212.891,0
1667327398.667,114.746,-50.293,-67.871,608.887,0
1667327398.670,-105.469,-63.965,-83.984,-254.883,0
1667327398.674,-197.754,-75.195,-86.426,-746.094,0
1667327398.678,-7.324,-72.266,-77.148,-26.367,0
1667327398.682,130.371,-61.035,-68.848,635.742,0
1667327398.686,-58.594,-60.059,-78.125,-38.086,0
1667327398.702,-222.656,-80.078,-96.191,-780.273,0
1667327398.706,-89.355,-78.125,-89.355,-293.457,0
1667327398.710,110.840,-60.547,-74.219,576.172,0
1667327398.714,17.578,-66.406,-84.961,260.742,0
1667327398.718,-190.918,-83.496,-99.121,-652.832,0
1667327398.722,-131.836,-80.078,-96.680,-507.812,0
1667327398.726,87.402,-53.223,-77.148,405.273,0
1667327398.729,83.984,-51.270,-71.289,490.723,0
1667327398.733,-153.809,-83.008,-97.168,-464.355,0
1667327398.737,-188.477,-86.914,-93.750,-687.500,0
1667327398.741,7.812,-62.988,-63.477,131.348,0
1667327398.745,109.375,-63.965,-68.848,587.402,0
1667327398.735,-101.562,-76.172,-89.355,-232.422,0
1667327398.739,-220.215,-74.219,-84.961,-794.434,0
1667327398.743,-49.316,-61.035,-66.406,-137.207,0
1667327398.747,116.699,-52.734,-62.988,607.422,0
1667327398.751,-39.062,-65.918,-85.449,42.480,0
1667327398.755,-220.703,-77.637,-105.469,-766.602,0
1667327398.759,-107.910,-72.266,-87.891,-380.371,0
1667327398.762,113.281,-61.035,-69.336,535.156,0
1667327398.766,46.875,-62.012,-83.984,342.285,0
1667327398.770,-186.523,-71.777,-90.332,-628.418,0
1667327398.774,-157.715,-72.754,-81.055,-606.934,0
1667327398.778,64.453,-67.871,-69.824,313.477,0
1667327398.778,94.238,-75.195,-79.102,536.621,0
1667327398.782,-143.555,-75.195,-90.820,-398.926,0
1667327398.786,-207.520,-69.336,-93.262,-750.977,0
1667327398.790,-1.953,-69.336,-86.914,70.312,0
1667327398.794,115.723,-66.895,-79.590,574.707,0
1667327398.798,-88.867,-67.871,-93.262,-208.984,0
1667327398.802,-218.262,-64.941,-104.980,-779.785,0
1667327398.805,-58.594,-62.988,-98.633,-168.457,0
1667327398.809,124.512,-72.754,-89.355,641.113,0
1667327398.813,-24.902,-67.871,-81.543,135.742,0
1667327398.817,-220.703,-60.547,-82.031,-742.188,0
1667327398.821,-117.188,-64.453,-79.590,-422.852,0
1667327398.822,102.539,-53.711,-60.059,500.488,0
1667327398.826,62.012,-53.223,-68.359,403.320,0
1667327398.830,-177.246,-72.266,-94.727,-572.266,0
1667327398.834,-167.480,-69.336,-91.797,-638.672,0
1667327398.838,50.781,-50.293,-68.359,270.996,0
1667327398.842,105.957,-48.828,-68.848,557.617,0
1667327398.846,-118.164,-62.012,-94.238,-355.469,0
1667327398.849,-198.730,-78.613,-115.234,-741.699,0
1667327398.853,-10.742,-67.871,-84.961,28.809,0
1667327398.857,125.977,-45.410,-48.340,627.441,0
1667327398.861,-44.434,-60.547,-74.219,-58.105,0
1667327398.865,-192.871,-69.336,-89.355,-741.211,0
1667327398.898,-62.988,-49.805,-69.824,-231.445,0
1667327398.902,125.977,-31.250,-56.152,592.285,0
1667327398.906,26.855,-37.598,-77.637,222.168,0
1667327398.910,-176.270,-42.969,-94.238,-682.617,0
1667327398.914,-101.074,-32.227,-76.660,-468.262,0
1667327398.918,133.301,-20.020,-64.453,479.492,0
1667327398.922,116.211,-28.809,-76.172,483.398,0
1667327398.925,-116.211,-42.969,-89.844,-471.191,0
1667327398.929,-135.254,-34.668,-83.984,-647.461,0
1667327398.933,75.195,-31.738,-74.707,217.285,0
1667327398.937,152.344,-36.133,-77.148,621.582,0
1667327398.941,-72.266,-46.387,-81.543,-248.047,0
1667327398.913,-165.039,-47.363,-82.031,-738.281,0
1667327398.917,20.996,-35.645,-76.172,-11.230,0
1667327398.921,162.598,-35.156,-61.523,663.086,0
1667327398.925,-18.066,-52.734,-72.754,-6.836,0
1667327398.929,-180.664,-64.941,-86.426,-735.352,0
1667327398.933,-50.293,-58.105,-76.172,-246.582,0
1667327398.937,142.578,-53.223,-79.102,592.773,0
1667327398.940,49.316,-52.734,-83.008,297.363,0
1667327398.944,-171.387,-53.711,-78.613,-653.320,0
1667327398.948,-119.141,-55.176,-71.777,-532.227,0
1667327398.952,103.516,-46.387,-61.035,403.809,0
1667327398.956,104.004,-40.527,-55.664,500.488,0
1667327398.958,-132.324,-56.641,-73.242,-458.496,0
1667327398.962,-166.992,-67.383,-85.449,-697.266,0
1667327398.966,46.387,-72.754,-83.984,177.246,0
1667327398.970,132.324,-60.059,-76.172,634.277,0
1667327398.974,-87.891,-56.152,-96.191,-215.820,0
1667327398.978,-197.266,-73.242,-111.328,-761.230,0
1667327398.982,-31.738,-66.895,-81.055,-103.516,0
1667327398.985,128.906,-50.293,-53.223,621.582,0
1667327398.989,-24.414,-52.246,-66.406,54.199,0
1667327398.993,-201.660,-70.312,-93.262,-742.188,0
1667327398.997,-88.867,-70.312,-79.590,-333.496,0
1667327399.001,120.117,-42.480,-56.641,558.105,0
1667327399.018,50.781,-52.246,-75.195,350.586,0
1667327399.022,-181.152,-72.266,-94.238,-608.398,0
1667327399.026,-155.762,-59.570,-87.891,-583.984,0
1667327399.030,67.383,-41.992,-67.871,336.426,0
1667327399.034,104.492,-42.969,-64.453,544.434,0
1667327399.038,-129.395,-61.523,-83.496,-382.812,0
1667327399.042,-193.359,-62.500,-83.008,-709.473,0
1667327399.045,7.324,-49.316,-67.383,89.355,0
1667327399.049,117.676,-46.387,-63.965,625.000,0
1667327399.053,-82.031,-61.523,-83.984,-140.625,0
1667327399.057,-213.379,-68.848,-97.656,-773.926,0
1667327399.061,-58.105,-58.594,-84.961,-167.969,0
1667327399.063,128.906,-52.734,-68.359,635.742,0
1667327399.067,0.488,-73.242,-96.191,163.086,0
1667327399.071,-215.820,-76.172,-107.910,-729.492,0
1667327399.075,-133.789,-62.500,-80.566,-433.105,0
1667327399.079,83.008,-62.500,-67.383,472.168,0
1667327399.083,43.457,-67.383,-80.566,360.840,0
1667327399.087,-178.711,-65.918,-99.609,-580.566,0
1667327399.090,-168.457,-59.570,-88.867,-652.344,0
1667327399.094,58.105,-59.570,-74.219,265.625,0
1667327399.098,104.492,-58.594,-75.195,566.895,0
1667327399.102,-135.742,-62.012,-86.426,-361.328,0
1667327399.106,-205.566,-65.918,-97.168,-768.555,0
1667327399.108,-6.836,-58.105,-80.078,14.648,0
1667327399.112,117.676,-53.711,-69.336,623.047,0
1667327399.116,-77.637,-70.801,-85.449,-98.145,0
1667327399.120,-229.980,-82.520,-97.656,-792.969,0
1667327399.124,-83.496,-66.406,-82.031,-242.676,0
1667327399.128,116.211,-53.223,-63.965,598.633,0
1667327399.132,5.859,-60.547,-90.332,204.102,0
1667327399.135,-208.496,-70.801,-110.352,-710.449,0
1667327399.139,-130.371,-76.172,-102.051,-477.051,0
1667327399.143,99.609,-61.523,-88.867,481.445,0
1667327399.147,76.172,-51.270,-79.102,457.031,0
1667327399.151,-159.180,-72.754,-98.145,-521.973,0
1667327399.153,-182.129,-69.824,-102.051,-680.664,0
1667327399.157,22.949,-49.805,-75.195,182.129,0
1667327399.161,108.398,-48.828,-71.289,570.801,0
1667327399.165,-98.145,-62.988,-97.656,-285.645,0
1667327399.169,-190.430,-63.477,-104.492,-770.996,0
1667327399.173,-5.859,-49.316,-77.148,-49.805,0
1667327399.177,138.672,-40.039,-60.547,637.695,0
1667327399.180,-43.945,-60.547,-92.773,0.977,0
1667327399.184,-217.773,-74.707,-105.469,-758.789,0
1667327399.188,-89.844,-54.688,-79.102,-302.246,0
1667327399.192,125.000,-41.504,-61.035,586.914,0
1667327399.196,34.668,-52.246,-72.266,290.039,0
1667327399.197,-191.895,-64.453,-88.379,-659.668,0
1667327399.201,-140.625,-59.082,-76.172,-532.227,0
1667327399.205,78.125,-51.270,-61.523,404.297,0
1667327399.209,82.520,-50.781,-66.895,511.230,0
1667327399.213,-149.414,-65.918,-91.309,-437.012,0
1667327399.217,-190.430,-73.730,-96.191,-673.828,0
1667327399.221,16.602,-61.035,-77.637,163.086,0
1667327399.224,123.535,-62.012,-84.961,642.578,0
1667327399.228,-92.773,-71.289,-101.074,-177.246,0
1667327399.232,-218.750,-65.918,-88.379,-766.113,0
1667327399.236,-45.410,-60.547,-78.613,-102.539,0
1667327399.240,120.605,-47.852,-68.848,644.043,0
1667327399.243,-39.062,-53.711,-71.289,66.406,0
1667327399.247,-227.051,-71.777,-85.449,-741.699,0
1667327399.251,-107.910,-66.895,-81.055,-341.309,0
1667327399.255,111.328,-53.711,-67.383,552.734,0
1667327399.259,40.527,-47.363,-69.336,354.980,0
1667327399.263,-190.918,-63.965,-92.285,-598.633,0
1667327399.267,-159.180,-77.148,-101.562,-581.543,0
1667327399.270,65.918,-62.012,-78.613,363.281,0
1667327399.274,73.730,-45.898,-72.266,500.000,0
1667327399.278,-155.273,-63.477,-98.633,-457.520,0
1667327399.282,-194.824,-72.754,-92.773,-702.637,0
1667327399.286,0.000,-59.082,-70.312,73.730,0
1667327399.288,117.676,-49.316,-62.500,607.422,0
1667327399.292,-83.008,-64.941,-87.402,-147.461,0
1667327399.296,-210.938,-77.148,-99.609,-774.414,0
1667327399.300,-59.082,-62.500,-74.219,-163.086,0
1667327399.304,122.559,-53.711,-63.477,590.820,0
1667327399.308,-11.719,-65.918,-90.332,87.891,0
1667327399.312,-217.285,-93.262,-118.164,-711.914,0
1667327399.315,-128.906,-87.891,-100.586,-405.762,0
1667327399.319,88.867,-50.781,-58.594,496.582,0
1667327399.323,55.176,-51.270,-66.406,410.645,0
1667327399.327,-173.340,-74.707,-89.355,-551.270,0
1667327399.331,-165.527,-73.242,-88.867,-620.605,0
1667327399.333,54.688,-54.199,-70.312,286.133,0
1667327399.337,99.121,-59.570,-70.801,571.289,0
1667327399.341,-132.812,-78.125,-98.633,-333.984,0
1667327399.345,-208.496,-71.777,-98.145,-737.793,0
1667327399.349,-17.090,-55.664,-69.336,13.184,0
1667327399.353,126.953,-54.199,-65.430,635.254,0
1667327399.357,-57.129,-64.941,-94.238,-62.012,0
1667327399.360,-216.309,-62.500,-95.215,-778.809,0
1667327399.364,-68.848,-53.223,-79.102,-239.746,0
1667327399.368,123.535,-46.387,-66.406,614.746,0
1667327399.372,4.395,-55.664,-65.430,217.285,0
1667327399.376,-210.938,-67.871,-77.637,-696.777,0
1667327399.394,-136.230,-64.453,-83.008,-475.098,0
1667327399.398,95.215,-51.270,-72.266,476.562,0
1667327399.402,75.195,-56.641,-70.801,475.586,0
1667327399.406,-162.109,-66.406,-82.031,-510.742,0
1667327399.410,-173.340,-67.383,-83.008,-668.945,0
1667327399.414,41.992,-62.500,-71.289,216.309,0
1667327399.418,116.699,-49.316,-69.824,602.051,0
1667327399.421,-109.863,-64.453,-89.844,-281.250,0
1667327399.425,-216.797,-73.730,-85.938,-777.344,0
1667327399.429,-28.320,-69.824,-79.102,-37.598,0
1667327399.433,123.535,-62.500,-75.195,643.066,0
1667327399.437,-61.035,-53.711,-76.172,-24.414,0
1667327399.437,-225.098,-71.289,-86.426,-772.461,0
1667327399.441,-90.820,-69.824,-72.266,-291.992,0
1667327399.445,116.211,-49.805,-53.711,585.449,0
1667327399.449,31.738,-51.270,-65.430,292.480,0
1667327399.453,-186.035,-66.895,-91.797,-635.254,0
1667327399.457,-138.184,-65.430,-93.750,-506.836,0
1667327399.461,86.914,-48.340,-69.336,418.945,71
1667327399.464,87.891,-46.875,-67.383,510.742,0
1667327399.468,-145.996,-67.383,-93.262,-439.941,0
1667327399.472,-180.176,-69.336,-88.379,-676.270,0
1667327399.476,18.555,-41.992,-50.293,146.973,0
1667327399.480,113.770,-40.039,-52.246,616.211,0
1667327399.482,-94.238,-57.129,-75.195,-183.105,0
1667327399.486,-207.520,-55.176,-75.684,-741.699,0
1667327399.490,-38.574,-46.387,-71.777,-99.121,0
1667327399.494,126.953,-47.363,-65.918,636.719,0
1667327399.498,-34.668,-57.129,-73.242,63.477,0
1667327399.502,-219.727,-64.941,-85.449,-743.652,0
1667327399.506,-111.328,-60.547,-72.754,-342.773,0
1667327399.509,99.609,-52.246,-55.176,545.898,0
1667327399.513,43.457,-62.988,-76.660,357.910,0
1667327399.517,-189.941,-70.801,-94.727,-594.238,0
1667327399.521,-167.969,-54.199,-77.637,-588.867,0
1667327399.525,63.477,-51.758,-72.266,338.379,0
1667327399.527,94.727,-56.152,-68.848,562.500,0
1667327399.531,-143.555,-65.430,-78.125,-379.395,0
1667327399.535,-202.637,-68.359,-85.449,-721.680,0
1667327399.539,2.930,-59.570,-62.012,89.355,0
1667327399.543,128.418,-54.688,-63.477,643.555,0
1667327399.547,-74.707,-73.242,-93.750,-125.000,0
1667327399.551,-210.938,-77.148,-92.773,-761.719,0
1667327399.554,-54.199,-66.895,-82.520,-148.438,0
1667327399.558,124.023,-60.059,-63.965,647.461,0
1667327399.562,-18.066,-53.223,-60.059,131.836,0
1667327399.566,-217.285,-65.430,-84.473,-740.723,0
1667327399.570,-119.629,-65.918,-80.566,-422.852,0
1667327399.602,95.703,-54.688,-59.570,502.441,0
1667327399.606,48.340,-58.105,-67.871,398.926,0
1667327399.610,-181.641,-75.684,-90.820,-569.336,0
1667327399.614,-168.457,-73.242,-87.891,-634.277,0
1667327399.618,53.711,-55.664,-61.523,269.531,0
1667327399.622,112.793,-59.570,-50.293,589.355,0
1667327399.626,-124.023,-71.289,-72.266,-320.801,0
1667327399.629,-205.566,-82.520,-90.332,-734.375,0
1667327399.633,-17.578,-67.871,-66.406,26.367,0
1667327399.637,105.469,-41.992,-51.270,606.445,0
1667327399.641,-75.195,-54.199,-90.820,-88.867,0
1667327399.645,-221.191,-71.777,-102.051,-780.762,0
1667327399.617,-79.590,-70.312,-74.707,-258.301,0
1667327399.621,120.117,-54.688,-54.199,589.355,0
1667327399.625,23.926,-56.152,-72.754,215.332,0
1667327399.629,-188.477,-64.941,-96.191,-699.707,0
1667327399.633,-117.676,-60.547,-80.078,-465.332,0
1667327399.637,104.004,-51.270,-65.430,491.699,0
1667327399.641,80.078,-60.059,-74.219,480.957,0
1667327399.644,-159.668,-73.242,-88.867,-483.398,0
1667327399.648,-181.152,-66.895,-85.449,-656.738,0
1667327399.652,36.621,-54.688,-72.266,214.844,0
1667327399.656,118.652,-56.641,-71.777,607.422,0
1667327399.660,-104.492,-65.918,-83.496,-262.207,0
1667327399.662,-208.008,-57.129,-82.031,-757.812,0
1667327399.666,-20.508,-50.293,-63.965,-42.969,0
1667327399.670,140.137,-57.617,-61.523,663.574,0
1667327399.674,-44.922,-61.035,-79.102,1.465,0
1667327399.678,-219.727,-60.059,-85.938,-754.395,0
1667327399.682,-80.566,-61.523,-81.543,-265.137,0
1667327399.686,125.000,-56.641,-66.406,600.098,0
1667327399.689,28.320,-64.453,-74.707,300.781,0
1667327399.693,-206.055,-66.895,-87.402,-664.551,0
1667327399.697,-151.855,-61.523,-80.566,-525.391,0
1667327399.701,74.219,-53.223,-62.500,405.762,0
1667327399.705,82.520,-48.828,-60.547,514.160,0
1667327399.707,-148.438,-57.617,-81.543,-427.246,0
1667327399.711,-187.988,-64.453,-90.820,-678.711,0
1667327399.715,27.344,-46.875,-65.430,148.926,0
1667327399.719,122.070,-39.551,-52.734,617.188,0
1667327399.723,-95.703,-55.176,-75.684,-201.172,0
1667327399.727,-206.055,-67.383,-89.844,-753.418,0
1667327399.731,-42.969,-60.059,-71.777,-93.262,0
1667327399.734,130.859,-37.598,-50.781,645.020,0
1667327399.738,0.977,-40.039,-66.895,95.703,0
1667327399.742,-179.688,-66.895,-96.191,-708.496,0
1667327399.746,-94.727,-65.918,-83.496,-350.586,0
1667327399.750,93.262,-41.992,-45.410,521.484,0
1667327399.767,18.555,-55.664,-54.688,334.961,0
1667327399.771,-220.215,-77.637,-84.473,-625.977,0
1667327399.775,-203.125,-73.730,-88.867,-616.211,0
1667327399.779,12.207,-63.477,-71.289,296.875,0
1667327399.783,33.691,-71.777,-70.312,491.211,0
1667327399.787,-202.637,-89.355,-86.914,-440.430,0
1667327399.791,-256.836,-85.449,-92.773,-760.254,0
1667327399.794,-47.363,-65.430,-63.965,38.574,0
1667327399.798,77.637,-51.758,-45.410,589.844,0
1667327399.802,-114.258,-75.195,-82.031,-154.785,0
1667327399.806,-249.512,-83.008,-84.961,-782.227,0
1667327399.810,-100.586,-62.500,-49.805,-206.055,0
1667327399.812,92.285,-59.570,-51.270,604.980,0
1667327399.816,-40.039,-65.918,-79.590,130.371,0
1667327399.820,-242.188,-68.359,-85.449,-742.676,0
1667327399.824,-144.043,-60.059,-72.754,-418.457,0
1667327399.828,75.684,-51.758,-62.500,485.352,0
1667327399.832,35.645,-60.059,-75.195,378.418,0
1667327399.836,-191.406,-68.359,-97.656,-569.824,0
1667327399.839,-187.012,-61.523,-85.449,-613.770,0
1667327399.843,34.668,-63.965,-74.219,300.781,0
1667327399.847,91.309,-63.477,-79.102,560.059,0
1667327399.851,-138.672,-57.129,-85.449,-352.539,0
1667327399.855,-208.984,-59.570,-87.891,-762.207,0
1667327399.857,-15.137,-53.223,-69.336,2.441,0
1667327399.861,108.887,-47.852,-62.500,611.816,0
1667327399.865,-77.148,-62.012,-87.891,-101.074,0
1667327399.869,-220.215,-63.965,-99.609,-778.320,0
1667327399.873,-73.242,-53.711,-91.309,-208.496,0
1667327399.877,121.582,-55.664,-73.242,631.836,0
1667327399.881,2.930,-62.012,-79.102,206.543,0
1667327399.884,-203.613,-68.359,-91.309,-700.195,0
1667327399.888,-131.348,-77.637,-87.402,-453.613,0
1667327399.892,77.637,-64.453,-71.777,449.219,0
1667327399.896,54.688,-43.457,-67.871,422.852,0
1667327399.900,-170.410,-55.664,-94.727,-495.605,0
1667327399.902,-187.012,-56.152,-85.449,-650.879,0
1667327399.906,20.996,-50.293,-55.176,212.402,0
1667327399.910,95.215,-58.594,-58.105,584.961,0
1667327399.914,-123.535,-70.312,-89.355,-281.250,0
1667327399.918,-214.844,-70.312,-105.957,-753.906,0
1667327399.922,-38.574,-69.336,-85.449,-43.457,0
1667327399.926,115.234,-61.035,-68.848,626.953,0
1667327399.929,-50.781,-68.359,-95.703,-1.953,0
1667327399.933,-214.844,-75.684,-102.539,-744.141,0
1667327399.937,-91.309,-55.664,-72.754,-299.805,0
1667327399.941,110.840,-45.898,-51.758,585.938,0
1667327399.945,17.090,-56.152,-70.312,288.086,0
1667327399.947,-209.473,-69.336,-100.098,-665.527,0
1667327399.951,-158.203,-63.965,-87.891,-543.945,0
1667327399.955,69.336,-50.781,-57.617,388.184,0
1667327399.959,78.613,-56.641,-63.477,505.371,0
1667327399.963,-157.227,-71.777,-93.750,-440.918,0
1667327399.967,-195.801,-78.613,-95.703,-680.176,0
1667327399.971,9.277,-66.406,-71.289,139.160,0
1667327399.974,108.398,-70.801,-74.219,612.793,0
1667327399.978,-112.305,-76.172,-89.355,-199.707,0
1667327399.982,-235.352,-62.988,-84.473,-784.180,0
1667327399.986,-52.734,-60.059,-74.707,-117.676,0
1667327399.990,124.023,-54.688,-62.988,630.371,0
1667327399.992,-34.180,-63.965,-78.125,54.688,0
1667327399.996,-222.656,-71.289,-85.938,-757.324,0
1667327400.000,-109.863,-65.918,-75.195,-361.816,0
1667327400.004,101.074,-57.617,-62.500,545.410,0
1667327400.008,27.832,-60.059,-73.730,341.797,0
1667327400.012,-196.777,-68.848,-87.891,-607.422,0
1667327400.016,-158.691,-68.359,-81.055,-564.453,0
1667327400.019,59.570,-61.523,-62.988,348.633,0
1667327400.023,79.102,-51.270,-53.711,531.738,0
1667327400.027,-151.367,-60.059,-76.172,-401.855,0
1667327400.031,-205.566,-68.848,-91.797,-738.281,0
1667327400.035,1.953,-53.223,-66.406,52.246,0
1667327400.037,128.906,-40.527,-56.152,604.492,0
1667327400.041,-73.242,-56.641,-82.031,-160.156,0
1667327400.045,-209.473,-69.824,-84.473,-781.738,0
1667327400.049,-47.363,-56.641,-63.477,-187.500,0
1667327400.053,144.531,-43.945,-50.781,621.094,0
1667327400.057,0.488,-56.152,-71.289,146.973,0
1667327400.061,-208.008,-74.707,-92.773,-719.727,0
1667327400.064,-120.605,-66.895,-86.426,-414.551,0
1667327400.068,86.426,-44.922,-54.688,486.816,0
1667327400.072,50.781,-47.363,-56.641,390.137,0
1667327400.076,-180.176,-63.477,-82.520,-558.594,0
1667327400.080,-179.199,-58.105,-83.496,-622.070,0
1667327400.082,39.551,-39.551,-65.918,261.230,0
1667327400.086,92.285,-43.945,-60.547,570.801,0
1667327400.090,-129.883,-52.246,-80.566,-319.824,0
1667327400.094,-205.078,-55.664,-84.473,-731.445,0
1667327400.098,-16.113,-53.711,-71.289,31.250,0
1667327400.102,119.141,-61.035,-74.219,658.203,0
1667327400.106,-66.895,-65.430,-83.984,-59.082,0
1667327400.109,-217.773,-54.199,-78.613,-770.020,0
1667327400.113,-80.078,-45.898,-60.059,-227.539,0
1667327400.117,116.699,-41.992,-52.734,616.211,0
1667327400.121,2.441,-52.246,-79.102,210.938,0
1667327400.125,-211.426,-60.547,-95.703,-692.383,0
1667327400.142,-135.254,-58.105,-88.867,-465.820,0
1667327400.146,82.520,-51.758,-71.777,468.262,0
1667327400.150,59.570,-54.688,-76.660,464.844,0
1667327400.154,-172.852,-62.988,-90.332,-501.953,0
1667327400.158,-181.641,-62.012,-80.566,-643.555,0
1667327400.162,33.691,-55.176,-61.523,226.074,0
1667327400.166,109.375,-52.246,-64.941,604.980,0
1667327400.169,-118.164,-60.547,-85.449,-268.066,0
1667327400.173,-221.191,-64.941,-86.426,-757.812,0
1667327400.177,-32.715,-67.871,-86.426,-24.902,0
1667327400.181,121.582,-56.152,-85.938,661.621,0
1667327400.185,-56.152,-53.223,-86.426,-11.230,0
1667327400.187,-220.215,-71.777,-92.773,-763.184,0
1667327400.191,-94.238,-67.871,-89.355,-291.016,0
1667327400.195,116.699,-42.969,-66.895,580.566,0
1667327400.199,19.531,-51.758,-71.777,278.320,0
1667327400.203,-203.125,-77.148,-90.820,-663.574,0
1667327400.207,-145.508,-71.777,-78.613,-529.297,0
1667327400.211,76.660,-54.688,-62.500,394.531,0
1667327400.214,81.543,-54.199,-83.984,488.770,0
1667327400.218,-146.973,-72.266,-117.676,-440.430,0
1667327400.222,-182.617,-74.219,-107.910,-675.293,0
1667327400.226,6.348,-52.734,-70.801,132.812,0
1667327400.230,103.516,-51.758,-62.012,591.797,0
1667327400.232,-102.539,-70.801,-90.820,-215.332,0
1667327400.236,-218.750,-73.242,-101.562,-766.113,0
1667327400.240,-47.852,-62.988,-76.660,-118.164,0
1667327400.244,124.023,-50.293,-60.059,625.488,0
1667327400.248,-24.902,-53.223,-86.426,69.824,0
1667327400.252,-207.031,-61.035,-105.469,-730.957,0
1667327400.256,-99.121,-55.664,-93.750,-342.773,0
1667327400.259,109.375,-42.480,-75.195,543.945,0
1667327400.263,47.363,-57.617,-87.891,365.234,0
1667327400.267,-183.594,-69.336,-96.191,-585.938,0
1667327400.271,-161.621,-48.340,-73.730,-586.914,0
1667327400.275,71.777,-42.480,-62.500,339.355,0
1667327400.293,107.422,-42.969,-57.129,553.711,0
1667327400.297,-131.836,-53.711,-72.754,-383.301,0
1667327400.301,-194.336,-62.012,-83.008,-711.426,0
1667327400.305,4.395,-56.152,-66.406,107.910,0
1667327400.309,115.723,-54.688,-60.059,597.656,0
1667327400.313,-85.938,-66.406,-89.355,-191.406,0
1667327400.317,-213.867,-68.359,-91.797,-755.371,0
1667327400.320,-49.805,-61.035,-90.820,-149.902,0
1667327400.324,125.488,-57.617,-94.727,637.207,0
1667327400.328,-21.973,-55.664,-86.914,125.488,0
1667327400.332,-220.703,-70.312,-99.609,-751.465,0
1667327400.336,-129.395,-77.148,-92.285,-433.105,0
1667327400.322,92.285,-56.641,-62.500,494.629,0
1667327400.326,53.223,-46.387,-66.406,402.832,0
1667327400.330,-183.105,-62.500,-102.051,-579.590,0
1667327400.334,-171.875,-69.336,-106.934,-569.336,0
1667327400.338,49.805,-60.547,-79.590,359.375,0
1667327400.342,88.867,-58.594,-77.148,555.664,0
1667327400.346,-134.277,-63.965,-91.797,-331.543,0
1667327400.349,-201.172,-64.453,-90.332,-736.816,0
1667327400.353,-21.973,-60.547,-77.148,6.836,0
1667327400.357,105.957,-51.758,-68.359,624.023,0
1667327400.361,-75.684,-58.105,-82.031,-84.961,0
1667327400.365,-210.449,-77.637,-106.934,-751.465,0
1667327400.368,-69.336,-67.383,-91.797,-214.844,0
1667327400.372,107.910,-44.922,-65.430,589.844,0
1667327400.376,-4.395,-53.711,-91.309,199.219,0
1667327400.380,-208.008,-67.383,-100.586,-695.312,0
1667327400.384,-136.719,-60.547,-85.449,-466.309,0
1667327400.388,83.984,-51.270,-68.848,467.773,0
1667327400.392,71.289,-58.105,-71.289,476.074,0
1667327400.395,-160.645,-64.453,-99.121,-475.586,0
1667327400.399,-181.152,-51.270,-88.379,-644.043,0
1667327400.403,25.879,-44.434,-62.500,206.055,0
1667327400.407,105.469,-47.363,-66.895,576.172,0
1667327400.411,-111.328,-62.012,-90.332,-292.480,0
1667327400.413,-213.379,-66.406,-92.285,-772.461,0
1667327400.417,-29.785,-58.105,-78.125,-45.898,0
1667327400.421,120.605,-54.688,-77.637,647.949,0
1667327400.425,-57.129,-59.570,-92.285,-11.230,0
1667327400.429,-216.309,-62.500,-95.703,-740.234,0
1667327400.433,-92.773,-59.082,-78.125,-262.207,0
1667327400.437,102.539,-63.965,-74.219,583.008,0
1667327400.440,12.207,-67.871,-88.379,294.922,0
1667327400.444,-215.332,-60.547,-93.262,-666.016,0
1667327400.448,-152.832,-61.035,-91.797,-536.133,0
1667327400.452,73.730,-58.594,-73.730,399.414,0
1667327400.456,74.219,-61.523,-70.312,483.887,0
1667327400.458,-154.297,-63.477,-83.008,-463.379,0
1667327400.462,-190.918,-67.383,-83.496,-686.523,0
1667327400.466,17.578,-59.570,-69.336,153.320,0
1667327400.470,111.816,-52.246,-63.965,603.027,0
1667327400.474,-106.445,-71.289,-84.961,-227.539,0
1667327400.478,-220.215,-85.938,-110.352,-771.484,0
1667327400.482,-50.781,-71.289,-104.980,-97.168,0
1667327400.485,108.398,-46.387,-79.590,618.652,0
1667327400.489,-42.969,-55.176,-94.238,33.691,0
1667327400.493,-217.285,-75.195,-103.516,-763.672,0
1667327400.497,-104.980,-70.312,-85.938,-361.816,0
1667327400.501,107.422,-54.199,-70.312,541.992,0
1667327400.518,34.668,-56.641,-77.637,338.867,0
1667327400.522,-192.871,-64.941,-94.727,-610.840,0
1667327400.526,-164.551,-59.570,-89.844,-579.590,0
1667327400.530,50.781,-49.805,-75.195,318.848,0
1667327400.534,83.496,-62.988,-74.219,517.090,0
1667327400.538,-145.996,-79.102,-97.168,-397.949,0
1667327400.542,-203.125,-78.125,-99.121,-709.961,0
1667327400.545,-6.348,-64.941,-67.383,82.031,0
1667327400.549,104.980,-54.688,-63.965,599.609,0
1667327400.553,-88.379,-78.125,-98.633,-145.996,0
1667327400.557,-224.609,-85.938,-96.191,-765.137,0
1667327400.561,-68.848,-55.176,-71.777,-191.895,0
1667327400.562,120.117,-45.410,-79.590,607.910,0
1667327400.566,-19.531,-63.477,-89.355,138.184,0
1667327400.570,-226.074,-73.730,-84.961,-730.957,0
1667327400.574,-130.859,-59.082,-76.660,-429.199,0
1667327400.578,101.562,-48.828,-71.289,504.395,0
1667327400.582,62.500,-54.688,-85.449,413.574,0
1667327400.586,-175.293,-60.059,-101.074,-549.316,0
1667327400.589,-170.898,-58.594,-100.098,-620.117,0
1667327400.593,55.176,-54.199,-90.820,284.668,0
1667327400.597,104.004,-55.664,-79.102,571.289,0
1667327400.601,-134.766,-63.965,-86.426,-358.887,0
1667327400.605,-208.008,-65.918,-91.797,-758.301,0
1667327400.608,-8.301,-47.852,-75.195,19.531,0
1667327400.612,120.117,-47.852,-64.453,626.465,0
1667327400.616,-78.613,-68.359,-80.078,-94.238,0
1667327400.620,-221.680,-77.148,-103.027,-779.297,0
1667327400.624,-59.082,-64.453,-99.121,-220.703,0
1667327400.628,145.508,-41.504,-77.637,627.930,0
1667327400.632,23.438,-51.758,-80.566,242.188,0
1667327400.635,-201.660,-69.824,-84.961,-668.945,0
1667327400.639,-131.348,-77.637,-78.125,-446.777,0
1667327400.643,81.055,-74.219,-62.988,479.004,0
1667327400.647,50.781,-59.082,-60.059,438.965,0
1667327400.651,-188.965,-78.613,-80.566,-526.855,0
1667327400.653,-207.520,-85.449,-79.590,-674.805,0
1667327400.657,10.254,-63.965,-54.199,201.172,0
1667327400.661,87.402,-60.059,-48.340,579.102,0
1667327400.665,-134.277,-83.496,-72.266,-278.809,0
1667327400.669,-226.562,-91.309,-91.797,-744.141,0
1667327400.673,-44.922,-77.637,-73.242,-35.645,0
1667327400.677,103.516,-72.754,-48.340,628.418,0
1667327400.680,-64.453,-86.914,-79.590,-16.602,0
1667327400.684,-232.910,-92.773,-95.215,-765.625,0
1667327400.688,-105.957,-68.848,-62.988,-301.758,0
1667327400.692,99.609,-62.500,-54.688,572.754,0
1667327400.696,4.883,-80.078,-84.961,270.996,0
1667327400.697,-218.750,-84.473,-98.145,-666.992,0
1667327400.701,-158.691,-77.148,-82.031,-540.039,0
1667327400.705,78.125,-64.453,-62.988,396.484,0
1667327400.709,80.566,-58.594,-66.406,493.652,0
1667327400.713,-153.809,-65.918,-90.820,-458.496,0
1667327400.717,-182.617,-68.359,-99.609,-678.711,0
1667327400.721,21.973,-60.059,-77.148,156.250,0
1667327400.724,115.234,-67.383,-76.660,614.746,0
1667327400.728,-99.121,-78.125,-99.121,-199.219,0
1667327400.732,-220.215,-67.383,-90.332,-773.438,0
1667327400.736,-45.410,-56.641,-69.824,-112.305,0
1667327400.740,133.789,-46.387,-61.035,635.742,0
1667327400.742,-23.926,-53.711,-81.055,68.359,0
1667327400.746,-209.961,-62.988,-103.027,-739.258,0
1667327400.750,-101.562,-63.477,-99.121,-346.191,0
1667327400.754,104.980,-54.688,-66.406,553.223,0
1667327400.758,36.133,-53.223,-66.895,339.355,0
1667327400.762,-194.824,-71.777,-88.379,-611.328,0
1667327400.766,-157.227,-72.754,-86.426,-558.594,0
1667327400.769,65.918,-57.617,-66.406,357.910,0
1667327400.773,83.496,-41.992,-55.664,526.855,0
1667327400.777,-146.484,-55.664,-78.613,-403.809,0
1667327400.781,-203.125,-72.266,-89.844,-700.684,0
1667327400.785,-7.324,-66.406,-65.918,98.633,0
1667327400.787,107.422,-56.641,-44.434,615.723,0
1667327400.791,-87.402,-64.941,-61.523,-144.531,0
1667327400.795,-221.680,-74.219,-83.496,-750.488,0
1667327400.799,-70.801,-65.918,-66.895,-157.715,0
1667327400.803,113.281,-54.688,-48.340,611.328,0
1667327400.807,-22.461,-67.871,-70.312,120.117,0
1667327400.811,-213.379,-83.496,-89.355,-715.820,0
1667327400.814,-127.930,-76.660,-76.172,-414.551,0
1667327400.818,82.031,-55.176,-53.223,479.980,0
1667327400.822,47.363,-58.105,-61.523,392.578,0
1667327400.826,-187.012,-71.289,-76.660,-569.336,0
1667327400.830,-174.316,-60.059,-64.941,-623.535,0
1667327400.833,53.223,-48.340,-49.805,285.156,0
1667327400.837,105.957,-54.688,-60.059,571.777,0
1667327400.841,-119.629,-59.082,-77.148,-341.797,0
1667327400.845,-196.289,-57.129,-78.613,-738.770,0
1667327400.849,-3.906,-48.340,-53.711,37.109,0
1667327400.853,131.836,-56.641,-46.387,646.973,0
1667327400.857,-46.387,-67.871,-69.824,-53.223,0
1667327400.860,-181.641,-53.223,-82.520,-729.492,0
1667327400.864,-29.297,-39.551,-67.383,-193.359,0
1667327400.868,167.480,-42.969,-49.805,636.230,0
1667327400.872,39.062,-61.035,-47.852,231.445,0
1667327400.876,-172.852,-65.430,-47.852,-663.086,0
1667327400.893,-81.543,-64.453,-44.922,-411.621,0
1667327400.897,147.461,-60.547,-26.855,529.297,0
1667327400.901,132.812,-58.105,-21.484,525.391,0
1667327400.905,-89.844,-69.824,-43.945,-418.945,0
1667327400.909,-104.004,-76.172,-44.434,-554.199,0
1667327400.913,110.840,-70.312,-27.344,321.289,0
1667327400.917,199.219,-66.406,-20.508,701.660,0
1667327400.920,-13.672,-72.266,-33.691,-157.227,0
1667327400.924,-105.469,-74.707,-35.156,-627.930,0
1667327400.928,79.590,-83.496,-29.297,101.074,0
1667327400.932,224.609,-71.289,-10.742,791.992,0
1667327400.936,45.410,-58.105,-5.859,133.301,0
1667327400.938,-123.535,-78.125,-30.762,-630.371,0
1667327400.942,9.766,-80.566,-20.508,-153.809,0
1667327400.946,210.449,-71.777,7.812,707.520,0
1667327400.950,102.539,-79.102,-5.371,371.094,0
1667327400.954,-103.516,-89.844,-35.645,-531.250,0
1667327400.958,-41.992,-84.961,-38.574,-372.070,0
1667327400.962,159.668,-69.336,-16.602,517.578,0
1667327400.965,152.832,-58.105,-17.090,599.609,0
1667327400.969,-78.613,-75.684,-48.828,-340.820,0
1667327400.973,-118.652,-81.543,-47.852,-567.383,0
1667327400.977,70.312,-55.176,-17.578,239.258,0
1667327400.981,157.227,-52.734,-14.160,673.340,0
1667327400.983,-51.758,-69.336,-38.086,-145.020,0
1667327400.987,-171.387,-70.801,-45.898,-693.848,0
1667327400.991,-5.859,-59.082,-27.832,-37.598,0
1667327400.995,158.203,-51.758,-20.508,687.500,0
1667327400.999,-1.953,-59.570,-37.598,118.164,0
1667327401.003,-179.199,-68.848,-52.734,-683.105,0
1667327401.007,-58.594,-66.895,-42.480,-288.086,0
1667327401.010,147.461,-61.035,-26.367,601.074,0
1667327401.014,74.219,-70.801,-47.852,397.949,0
1667327401.018,-155.273,-74.707,-62.500,-555.176,0
1667327401.022,-136.230,-54.199,-41.504,-537.109,0
1667327401.026,91.797,-48.828,-33.691,392.090,0
1667327401.027,121.094,-53.711,-45.410,583.984,0
1667327401.031,-115.234,-61.035,-61.523,-358.887,0
1667327401.035,-169.922,-68.359,-70.312,-679.199,0
1667327401.039,29.297,-60.547,-61.035,129.395,0
1667327401.043,139.160,-54.199,-47.363,672.363,0
1667327401.047,-65.430,-68.848,-59.570,-101.562,0
1667327401.051,-198.242,-73.242,-67.871,-740.723,0
1667327401.054,-41.992,-64.453,-58.594,-122.559,0
1667327401.058,139.160,-59.570,-43.945,677.246,0
1667327401.062,0.488,-53.711,-41.992,156.738,0
1667327401.066,-193.359,-64.453,-63.965,-701.660,0
1667327401.070,-101.562,-72.754,-62.988,-371.582,0
1667327401.072,108.887,-54.688,-41.504,537.109,0
1667327401.076,66.895,-48.340,-51.758,424.805,0
1667327401.080,-162.109,-64.941,-79.590,-539.551,0
1667327401.084,-151.367,-63.477,-70.312,-594.727,0
1667327401.088,74.219,-48.828,-44.922,312.012,0
1667327401.092,118.164,-51.758,-52.246,585.938,0
1667327401.096,-115.723,-67.383,-75.195,-330.566,0
1667327401.099,-183.105,-75.684,-80.566,-708.984,0
1667327401.103,1.953,-61.523,-66.895,54.199,0
1667327401.107,126.953,-38.574,-52.734,628.906,0
1667327401.111,-55.664,-51.758,-71.289,-78.125,0
1667327401.115,-204.590,-60.547,-77.637,-761.719,0
1667327401.117,-59.570,-52.734,-65.430,-219.238,0
1667327401.121,133.789,-46.875,-53.711,613.281,0
1667327401.125,17.090,-56.152,-67.871,213.867,0
1667327401.129,-190.918,-64.941,-88.379,-677.246,0
1667327401.133,-112.305,-54.688,-83.008,-444.336,0
1667327401.137,122.070,-39.551,-68.848,491.211,0
1667327401.141,109.375,-45.898,-82.520,485.840,0
1667327401.144,-152.832,-70.801,-96.191,-490.723,0
1667327401.148,-187.012,-65.918,-66.406,-654.785,0
1667327401.152,36.133,-52.246,-42.969,216.309,0
1667327401.156,110.840,-56.152,-50.781,591.309,0
1667327401.160,-99.609,-62.012,-72.754,-261.230,0
1667327401.184,-190.430,-61.523,-74.219,-736.816,0
1667327401.188,-4.883,-55.176,-56.641,-17.578,0
1667327401.192,150.879,-51.270,-54.688,665.039,0
1667327401.196,-21.973,-60.059,-69.824,15.137,0
1667327401.200,-184.082,-60.547,-84.961,-737.305,0
1667327401.204,-56.641,-54.199,-79.102,-260.742,0
1667327401.208,143.555,-53.223,-53.711,607.422,0
1667327401.211,42.480,-60.547,-76.172,290.527,0
1667327401.215,-186.035,-65.918,-97.168,-645.020,0
1667327401.219,-123.047,-60.059,-83.008,-498.047,0
1667327401.223,102.539,-54.688,-60.547,427.246,0
1667327401.227,94.727,-50.781,-56.641,490.234,0
1667327401.207,-140.625,-53.711,-77.637,-461.914,0
1667327401.211,-169.434,-58.594,-83.008,-667.969,0
1667327401.215,44.434,-59.570,-78.125,192.383,0
1667327401.219,127.930,-43.945,-63.965,622.559,0
1667327401.223,-83.496,-42.480,-80.078,-219.238,0
1667327401.227,-194.824,-66.406,-100.098,-744.629,0
1667327401.231,-30.762,-66.895,-81.055,-76.660,0
1667327401.234,130.371,-41.504,-61.035,626.953,0
1667327401.238,-28.809,-39.062,-80.078,57.129,0
1667327401.242,-199.219,-55.664,-102.539,-719.727,0
1667327401.246,-84.961,-62.500,-93.750,-317.871,0
1667327401.250,117.676,-42.969,-69.824,566.406,0
1667327401.267,46.875,-46.875,-75.684,345.215,0
1667327401.271,-182.129,-67.871,-100.586,-615.723,0
1667327401.275,-147.461,-63.477,-96.191,-568.848,0
1667327401.279,73.242,-50.781,-74.707,361.328,0
1667327401.283,102.539,-48.340,-76.172,552.246,0
1667327401.287,-125.488,-66.406,-97.168,-381.836,0
1667327401.291,-179.688,-72.754,-91.309,-687.988,0
1667327401.294,17.578,-61.035,-66.895,113.281,0
1667327401.298,123.535,-49.316,-61.523,629.883,0
1667327401.302,-67.383,-63.477,-89.844,-109.863,0
1667327401.306,-204.590,-68.359,-95.703,-718.262,0
1667327401.310,-54.199,-45.410,-72.754,-139.648,0
1667327401.312,131.348,-41.504,-69.824,638.184,0
1667327401.316,-10.742,-57.617,-85.938,145.020,0
1667327401.320,-207.520,-62.988,-94.727,-713.379,0
1667327401.324,-108.887,-51.758,-80.566,-399.902,0
1667327401.328,107.422,-44.434,-62.500,519.043,0
1667327401.332,61.035,-49.316,-68.848,409.668,0
1667327401.336,-171.387,-55.664,-78.613,-545.898,0
1667327401.339,-165.527,-52.734,-78.613,-601.562,0
1667327401.343,58.594,-53.223,-75.195,298.828,0
1667327401.347,105.957,-58.105,-74.707,587.891,0
1667327401.351,-135.254,-59.570,-84.961,-327.637,0
1667327401.355,-212.891,-67.383,-92.773,-729.980,0
1667327401.357,-24.414,-62.012,-78.125,24.902,0
1667327401.361,107.422,-56.152,-66.895,623.047,0
1667327401.365,-83.008,-68.848,-89.844,-78.613,0
1667327401.369,-232.910,-72.266,-90.820,-771.484,0
1667327401.373,-80.566,-64.453,-72.754,-208.984,0
1667327401.377,107.422,-55.664,-64.453,623.047,0
1667327401.381,-13.184,-64.453,-76.660,183.105,0
1667327401.384,-210.938,-74.219,-92.773,-702.637,0
1667327401.388,-120.117,-67.871,-94.238,-444.824,0
1667327401.392,88.867,-68.359,-76.660,500.000,0
1667327401.396,31.250,-66.895,-71.289,395.020,0
1667327401.400,-186.035,-74.219,-100.098,-576.172,0
1667327401.402,-175.293,-72.754,-89.355,-641.602,0
1667327401.406,32.227,-59.082,-55.176,203.613,0
1667327401.410,108.887,-55.176,-61.523,572.266,0
