timestamps,TP9,AF7,AF8,TP10
1664200649.037,-20.020,-25.879,-21.484,-58.105
1664200649.041,-26.855,-22.949,-16.113,-44.922
1664200649.045,-13.184,-26.367,-15.625,-33.691
1664200649.049,-5.371,-24.414,-16.113,-50.293
1664200649.053,-11.719,-16.113,-12.695,-44.434
1664200649.057,-11.719,-17.578,-16.602,-33.203
1664200649.061,-20.508,-23.438,-20.508,-48.828
1664200649.064,-13.672,-21.484,-18.555,-47.363
1664200649.068,-5.371,-18.555,-17.578,-48.828
1664200649.072,-17.578,-22.949,-20.996,-53.711
1664200649.076,-5.859,-21.973,-20.020,-48.828
1664200649.080,6.836,-22.461,-12.207,-42.969
1664200649.082,-3.906,-25.391,-14.648,-44.434
1664200649.086,-10.254,-20.020,-16.602,-51.270
1664200649.090,-9.766,-20.508,-19.043,-38.086
1664200649.094,5.859,-15.137,-17.090,-34.180
1664200649.098,8.301,-12.207,-14.648,-40.527
1664200649.102,5.859,-16.113,-15.137,-29.297
1664200649.106,-5.859,-18.555,-16.113,-28.809
1664200649.109,0.977,-24.414,-15.137,-20.020
1664200649.113,2.930,-17.090,-11.719,-4.395
1664200649.117,0.977,-9.766,-16.602,-40.039
1664200649.121,-3.418,-21.973,-22.461,-43.457
1664200649.125,-33.691,-24.414,-19.531,-40.039
1664200649.127,-18.066,-23.926,-18.555,-46.387
1664200649.131,-10.742,-23.438,-22.461,-31.250
1664200649.135,-22.461,-21.484,-20.020,-32.715
1664200649.139,-18.066,-18.555,-20.020,-24.414
1664200649.143,-22.949,-14.160,-21.973,-14.648
1664200649.147,-14.648,-16.113,-22.949,-26.367
1664200649.151,-2.930,-25.391,-21.973,-24.902
1664200649.154,-17.090,-23.438,-20.020,-23.438
1664200649.158,-33.691,-10.254,-20.508,-29.297
1664200649.162,-5.859,-12.207,-22.461,-32.227
1664200649.166,0.488,-22.461,-24.414,-37.109
1664200649.170,-39.062,-27.832,-23.438,-41.992
1664200649.172,-30.762,-25.391,-18.066,-37.598
1664200649.176,-17.578,-26.855,-20.508,-47.852
1664200649.180,-20.020,-27.832,-26.367,-45.410
1664200649.184,1.465,-23.926,-20.508,-21.973
1664200649.188,-2.441,-24.902,-14.160,-35.645
1664200649.192,-21.484,-22.949,-17.090,-41.016
1664200649.196,-21.973,-29.785,-20.508,-29.297
1664200649.199,-18.066,-23.438,-23.438,-24.902
1664200649.203,-19.043,-7.324,-20.508,-18.555
1664200649.207,-8.301,-12.207,-10.742,-20.996
1664200649.211,7.812,-18.066,-12.695,-24.902
1664200649.215,12.695,-16.602,-15.137,-19.531
1664200649.219,2.930,-19.531,-11.719,-10.254
1664200649.223,-12.207,-22.949,-14.160,-17.578
1664200649.227,14.648,-17.090,-17.578,-38.086
1664200649.231,-4.883,-16.113,-17.578,-38.086
1664200649.235,-45.410,-15.137,-14.648,-36.133
1664200649.239,-42.969,-14.160,-20.020,-39.062
1664200649.243,-31.250,-17.090,-25.391,-35.156
1664200649.246,-19.531,-8.301,-18.066,-35.156
1664200649.250,-11.719,-8.301,-17.090,-27.344
1664200649.254,-12.207,-19.043,-21.973,-33.691
1664200649.258,-0.488,-19.531,-20.020,-42.480
1664200649.262,16.113,-16.602,-18.066,-31.250
1664200649.262,-3.906,-13.672,-15.625,-42.480
1664200649.266,-16.113,-16.113,-18.555,-52.246
1664200649.270,-3.418,-12.207,-18.066,-25.879
1664200649.274,6.348,-8.301,-19.043,-13.672
1664200649.278,4.395,-11.719,-22.461,-28.809
1664200649.282,3.418,-12.695,-20.508,-39.551
1664200649.286,4.883,-6.348,-21.973,-39.551
1664200649.289,1.465,-1.465,-21.973,-38.574
1664200649.293,-13.184,-14.160,-22.461,-40.527
1664200649.297,-4.883,-27.832,-30.273,-45.898
1664200649.301,-11.719,-22.949,-24.902,-42.969
1664200649.305,-14.160,-12.207,-16.113,-32.715
1664200649.307,0.000,-14.160,-20.020,-34.668
1664200649.311,-7.812,-18.555,-18.066,-41.992
1664200649.315,-13.672,-18.555,-14.648,-48.828
1664200649.319,-10.254,-14.648,-18.066,-59.082
1664200649.323,-0.977,-12.207,-20.996,-36.621
1664200649.327,9.766,-19.531,-20.508,-37.598
1664200649.331,-6.348,-16.602,-24.414,-54.688
1664200649.334,10.742,-13.672,-27.832,-35.156
1664200649.338,25.879,-19.043,-20.996,-41.992
1664200649.342,-20.996,-19.531,-14.160,-47.852
1664200649.346,-33.691,-20.508,-17.090,-44.922
1664200649.350,-16.113,-20.020,-17.090,-44.922
1664200649.352,-2.930,-20.996,-14.648,-40.527
1664200649.356,4.395,-22.461,-16.113,-46.387
1664200649.360,2.930,-21.484,-15.137,-49.805
1664200649.364,-20.508,-20.020,-12.207,-47.363
1664200649.368,-30.273,-21.973,-13.184,-52.246
1664200649.372,-30.762,-20.508,-16.113,-44.434
1664200649.376,-26.367,-16.113,-16.113,-40.527
1664200649.379,-27.832,-23.926,-20.996,-50.781
1664200649.383,-18.066,-25.879,-20.508,-42.480
1664200649.387,-32.227,-28.320,-18.555,-45.898
1664200649.391,-53.223,-29.297,-26.855,-63.477
1664200649.395,-45.410,-28.809,-30.273,-46.387
1664200649.416,-52.246,-30.762,-24.414,-39.062
1664200649.420,-49.316,-29.297,-27.344,-55.176
1664200649.424,-33.203,-22.461,-29.297,-43.457
1664200649.428,-46.875,-22.461,-29.785,-41.504
1664200649.432,-46.875,-21.973,-28.809,-51.758
1664200649.436,-28.320,-15.137,-22.461,-36.133
1664200649.440,-20.508,-20.020,-25.391,-37.109
1664200649.443,-40.039,-22.949,-26.855,-27.344
1664200649.447,-49.805,-21.484,-20.020,-16.113
1664200649.451,-39.551,-8.789,-23.926,-47.852
1664200649.455,-44.434,0.488,-24.414,-55.176
1664200649.459,-56.152,-7.812,-20.508,-39.062
1664200649.457,-68.359,-9.766,-26.855,-37.598
1664200649.461,-50.781,-9.277,-26.855,-34.668
1664200649.465,-25.879,-13.672,-24.902,-20.020
1664200649.469,-37.109,-13.184,-24.902,-13.184
1664200649.473,-20.020,-13.184,-21.973,-16.113
1664200649.477,12.207,-16.602,-14.160,0.977
1664200649.481,25.391,-16.113,-12.207,9.277
1664200649.484,12.695,-18.555,-14.160,-7.324
1664200649.488,-0.977,-12.207,-15.137,-11.230
1664200649.492,9.766,-8.789,-20.508,-18.555
1664200649.496,7.324,-21.484,-24.414,-22.461
1664200649.500,-1.465,-17.578,-21.484,-22.949
1664200649.502,9.766,-12.207,-21.484,-24.902
1664200649.506,-3.418,-15.625,-19.043,-14.648
1664200649.510,-25.879,-17.578,-19.531,-7.324
1664200649.514,-18.555,-24.902,-28.320,-32.227
1664200649.518,-3.418,-22.949,-26.367,-48.828
1664200649.522,8.789,-14.648,-20.508,-31.738
1664200649.526,21.973,-17.090,-19.531,-21.484
1664200649.529,34.668,-24.414,-21.484,-16.602
1664200649.533,26.367,-21.973,-16.602,-10.254
1664200649.537,-0.488,-26.367,-16.602,-17.090
1664200649.541,-6.836,-32.227,-16.602,-22.461
1664200649.545,3.906,-35.156,-17.578,-10.254
1664200649.547,6.836,-35.156,-26.367,-6.348
1664200649.551,9.277,-31.250,-29.785,-12.207
1664200649.555,10.742,-27.344,-23.926,-23.926
1664200649.559,-0.977,-20.996,-21.484,-35.645
1664200649.563,2.441,-23.926,-21.484,-28.809
1664200649.567,12.207,-25.879,-20.996,-24.414
1664200649.571,26.367,-24.414,-19.531,-39.062
1664200649.574,19.043,-18.555,-19.043,-40.039
1664200649.578,-0.488,-14.160,-20.996,-26.367
1664200649.582,6.836,-24.414,-14.648,-27.344
1664200649.586,6.348,-27.344,-13.184,-25.391
1664200649.590,7.812,-27.344,-14.160,-24.414
1664200649.592,17.090,-28.320,-11.719,-22.949
1664200649.596,21.973,-27.832,-15.137,-23.926
1664200649.600,22.461,-27.832,-21.484,-28.320
1664200649.604,23.438,-27.344,-18.555,-33.203
1664200649.608,-0.977,-29.297,-15.625,-43.945
1664200649.612,0.000,-28.320,-15.137,-28.320
1664200649.616,19.043,-27.832,-14.648,-27.832
1664200649.619,20.020,-21.484,-15.625,-50.293
1664200649.623,31.250,-24.414,-14.648,-24.414
1664200649.627,45.410,-32.227,-9.766,-15.625
1664200649.631,62.012,-23.438,-13.672,-32.715
1664200649.635,53.711,-23.438,-22.949,-39.551
1664200649.637,20.020,-29.297,-23.926,-35.645
1664200649.641,15.137,-26.367,-23.438,-39.062
1664200649.645,2.930,-27.344,-23.926,-51.758
1664200649.649,-18.555,-31.738,-20.020,-49.316
1664200649.653,-19.043,-32.227,-19.531,-48.828
1664200649.657,-9.766,-28.809,-22.461,-31.250
1664200649.661,3.418,-24.414,-26.855,-15.625
1664200649.664,23.438,-27.344,-35.645,-38.574
1664200649.668,25.391,-30.273,-28.809,-57.129
1664200649.672,7.324,-20.508,-20.996,-50.781
1664200649.676,-16.602,-19.531,-24.902,-42.969
1664200649.680,-17.578,-21.484,-20.508,-43.457
1664200649.682,-8.301,-20.996,-15.137,-42.480
1664200649.686,5.371,-28.320,-18.066,-29.297
1664200649.690,14.648,-27.344,-16.113,-25.391
1664200649.694,6.836,-24.902,-16.602,-23.438
1664200649.698,3.418,-29.297,-18.555,-25.879
1664200649.702,6.348,-27.344,-17.578,-29.297
1664200649.706,18.066,-20.508,-18.066,-22.949
1664200649.709,18.555,-19.531,-16.113,-43.457
1664200649.713,0.000,-21.973,-16.113,-59.082
1664200649.717,-40.527,-21.973,-13.672,-51.758
1664200649.721,-27.344,-25.391,-10.254,-32.715
1664200649.725,-8.789,-23.926,-13.184,-29.785
1664200649.727,-27.832,-24.414,-16.602,-35.156
1664200649.731,-20.508,-28.809,-16.602,-34.180
1664200649.735,0.000,-21.973,-19.531,-51.758
1664200649.739,-4.883,-13.184,-16.602,-46.387
1664200649.743,0.488,-15.137,-18.555,-33.203
1664200649.747,31.738,-17.578,-30.273,-23.926
1664200649.751,42.969,-11.719,-19.043,3.906
1664200649.754,9.766,-23.926,6.348,-33.691
1664200649.758,-29.785,-37.598,12.695,-64.453
1664200649.762,-19.043,-31.738,3.418,-27.344
1664200649.766,11.230,-29.297,2.441,-6.348
1664200649.770,11.230,-34.668,10.254,-3.906
1664200649.787,7.812,-37.109,12.207,4.883
1664200649.791,8.301,-31.738,6.836,-11.719
1664200649.795,-11.719,-28.320,-1.953,-32.227
1664200649.799,-13.184,-32.715,-2.441,-20.020
1664200649.803,26.855,-32.227,1.953,-2.930
1664200649.807,29.785,-28.809,-0.977,-22.461
1664200649.811,-20.508,-34.180,-3.906,-30.273
1664200649.814,-10.254,-37.598,-4.883,-6.836
1664200649.818,9.277,-35.645,-6.348,-1.465
1664200649.822,2.930,-29.297,-8.789,-13.184
1664200649.826,-6.836,-27.344,-14.160,-33.203
1664200649.830,1.953,-28.809,-13.184,-25.391
1664200649.832,39.551,-21.973,-8.301,-19.531
1664200649.836,15.137,-15.625,-7.812,-19.531
1664200649.840,-25.879,-21.484,-5.859,-21.484
1664200649.844,-5.859,-11.230,2.441,-31.738
1664200649.848,18.066,15.137,4.883,-30.273
1664200649.852,18.066,13.184,-11.719,-38.574
1664200649.856,11.230,17.578,0.488,-41.016
1664200649.859,-23.438,17.090,2.930,-55.176
1664200649.863,-28.320,7.324,-9.277,-60.059
1664200649.867,-11.230,-0.488,8.301,-65.918
1664200649.871,-22.949,-6.348,-1.953,-90.332
1664200649.875,-63.965,-0.977,-13.184,-99.609
1664200649.877,-81.543,-0.488,-14.160,-105.957
1664200649.881,-52.246,11.719,-17.090,-101.562
1664200649.885,-96.191,1.953,-10.254,-128.418
1664200649.889,-146.484,-25.391,3.906,-163.574
1664200649.893,-127.441,-41.016,4.883,-146.973
1664200649.897,-154.297,-33.203,-1.465,-166.504
1664200649.901,-174.316,-18.555,20.020,-203.613
1664200649.904,-144.531,-49.316,20.508,-187.012
1664200649.908,-145.508,-43.457,23.926,-162.598
1664200649.912,-210.449,-6.348,39.062,-216.309
1664200649.916,-259.277,4.883,24.414,-290.527
1664200649.920,-263.672,14.648,5.371,-299.316
1664200649.922,-250.000,8.301,-10.254,-289.062
1664200649.926,-254.883,0.488,4.883,-279.297
1664200649.930,-271.484,-0.977,23.438,-266.113
1664200649.934,-234.863,6.348,23.926,-244.141
1664200649.938,-206.055,18.555,0.000,-224.121
1664200649.942,-184.570,28.809,-20.020,-208.496
1664200649.946,-142.578,37.598,-19.043,-156.738
1664200649.949,-132.324,51.758,-19.043,-124.023
1664200649.953,-118.652,58.105,-19.531,-128.906
1664200649.957,-76.660,45.410,-20.508,-90.332
1664200649.961,-65.918,44.434,-28.809,-58.105
1664200649.965,-58.594,37.598,-44.922,-50.781
1664200649.967,-10.742,34.668,-45.410,-23.926
1664200649.971,-14.160,41.016,-39.062,-9.277
1664200649.975,-18.066,39.062,-46.387,7.812
1664200649.979,6.348,45.410,-53.711,12.207
1664200649.983,17.578,55.664,-56.152,20.996
1664200649.987,20.996,54.688,-62.012,30.273
1664200649.991,39.062,52.734,-59.082,54.688
1664200649.994,61.035,59.570,-57.617,65.918
1664200649.998,60.059,60.059,-64.941,64.453
1664200650.002,63.477,49.805,-67.871,73.242
1664200650.006,79.590,50.781,-70.312,72.754
1664200650.010,85.938,69.336,-75.684,74.219
1664200650.012,85.449,84.473,-77.148,85.938
1664200650.016,87.402,74.707,-73.242,87.891
1664200650.020,80.078,74.707,-70.801,67.871
1664200650.024,80.078,92.285,-75.195,70.312
1664200650.028,109.375,97.656,-83.496,87.402
1664200650.032,88.867,91.309,-83.496,77.148
1664200650.036,74.707,85.449,-81.055,74.219
1664200650.039,103.516,86.426,-85.938,84.473
1664200650.043,93.262,93.750,-87.402,86.426
1664200650.047,85.449,98.145,-89.844,89.844
1664200650.051,98.145,88.867,-96.191,80.566
1664200650.055,90.332,73.730,-96.191,64.941
1664200650.057,84.961,71.289,-88.867,69.824
1664200650.061,81.055,77.148,-87.402,77.148
1664200650.065,79.590,73.242,-91.309,81.055
1664200650.069,82.520,70.801,-87.402,61.035
1664200650.073,73.730,65.430,-88.379,53.711
1664200650.077,83.008,53.711,-92.285,67.871
1664200650.081,76.172,51.758,-97.656,53.223
1664200650.084,59.082,51.758,-98.145,47.852
1664200650.088,62.012,49.805,-93.750,54.199
1664200650.092,60.547,44.922,-99.121,40.039
1664200650.096,53.223,38.086,-102.539,42.480
1664200650.100,62.012,37.598,-98.145,44.434
1664200650.102,68.359,25.879,-95.215,36.133
1664200650.106,49.316,15.625,-92.285,41.016
1664200650.110,35.645,15.137,-90.820,39.062
1664200650.114,34.668,7.324,-89.355,26.367
1664200650.118,23.438,8.789,-85.938,19.043
1664200650.122,20.020,19.531,-83.984,21.484
1664200650.126,21.973,11.230,-78.125,33.203
1664200650.129,18.555,-4.395,-68.359,40.527
1664200650.133,15.625,-2.441,-64.941,13.184
1664200650.137,5.371,-3.906,-62.500,-13.672
1664200650.141,-4.395,-10.742,-56.641,-6.836
1664200650.145,8.301,-12.695,-55.664,11.719
1664200650.162,22.461,-11.230,-50.293,24.902
1664200650.166,21.484,-20.996,-49.316,15.137
1664200650.170,13.672,-24.414,-51.270,7.324
1664200650.174,5.859,-16.602,-41.016,-3.906
1664200650.178,17.578,-15.625,-32.227,-6.348
1664200650.182,46.875,-13.184,-30.273,20.020
1664200650.186,21.484,-16.113,-30.762,19.531
1664200650.189,1.465,-22.461,-29.785,-18.066
1664200650.193,-1.953,-26.367,-26.367,-22.949
1664200650.197,2.930,-25.391,-25.879,-0.977
1664200650.201,7.324,-24.902,-25.391,-9.277
1664200650.205,3.418,-31.738,-22.949,-17.090
1664200650.207,7.812,-34.180,-24.414,-6.348
1664200650.211,1.953,-33.203,-25.391,-8.789
1664200650.215,-7.812,-35.156,-24.414,-18.555
1664200650.219,-4.395,-36.133,-14.160,-18.066
1664200650.223,7.324,-38.086,-9.766,-14.648
1664200650.227,13.184,-33.691,-12.695,-7.324
1664200650.231,6.348,-32.227,-9.766,-13.672
1664200650.234,8.789,-36.621,-7.324,-24.902
1664200650.238,-14.160,-41.504,-10.254,-26.855
1664200650.242,-27.832,-54.199,-13.184,-30.273
1664200650.246,-4.883,-56.641,-11.230,-20.508
1664200650.250,0.000,-47.852,-15.137,-17.090
1664200650.252,-11.230,-46.387,-19.043,-18.555
1664200650.256,-24.414,-46.875,-13.672,-14.648
1664200650.260,-18.066,-46.387,-13.672,-8.789
1664200650.264,-11.719,-41.992,-14.648,2.930
1664200650.268,-14.160,-40.527,-13.672,-20.508
1664200650.272,-10.254,-35.645,-10.254,-33.691
1664200650.276,-3.418,-37.109,-11.719,-18.555
1664200650.279,17.090,-46.875,-17.090,-20.996
1664200650.283,18.555,-40.527,-13.672,-9.277
1664200650.287,0.488,-37.598,-12.695,2.930
1664200650.291,2.441,-45.410,-15.625,-13.184
1664200650.295,9.277,-49.316,-17.578,-20.020
1664200650.297,-2.930,-45.898,-19.043,-14.648
1664200650.301,-35.156,-46.875,-20.020,-19.531
1664200650.305,-32.715,-44.922,-15.625,-22.461
1664200650.309,-3.906,-41.504,-20.996,-25.391
1664200650.313,19.043,-46.875,-26.855,-31.250
1664200650.317,2.441,-46.387,-25.391,-36.621
1664200650.321,-29.785,-42.969,-26.367,-38.574
1664200650.324,-22.949,-42.480,-22.461,-25.879
1664200650.328,-11.230,-45.898,-23.438,-26.367
1664200650.332,3.418,-48.340,-23.438,-33.203
1664200650.336,-9.277,-48.340,-18.555,-32.715
1664200650.340,-19.531,-50.293,-21.484,-36.621
1664200650.342,-20.020,-49.316,-25.391,-24.414
1664200650.346,-4.883,-43.457,-28.320,-20.020
1664200650.350,5.859,-37.598,-26.855,-27.344
1664200650.354,-7.324,-42.969,-31.250,-36.133
1664200650.358,-4.883,-47.363,-34.180,-36.621
1664200650.362,3.906,-41.992,-31.738,-29.785
1664200650.366,-6.836,-45.898,-33.691,-32.715
1664200650.369,-6.836,-50.781,-33.203,-30.762
1664200650.373,3.418,-44.434,-34.180,-23.438
1664200650.377,14.160,-41.504,-33.203,-25.391
1664200650.381,7.324,-46.875,-36.133,-27.344
1664200650.385,0.488,-42.969,-33.203,-36.621
1664200650.387,0.488,-38.086,-24.902,-36.621
1664200650.391,-14.160,-41.992,-31.738,-36.621
1664200650.395,-18.066,-42.969,-35.645,-56.152
1664200650.399,-19.531,-41.504,-28.320,-62.500
1664200650.403,-24.902,-41.016,-23.438,-45.898
1664200650.407,-14.160,-41.992,-21.973,-34.668
1664200650.411,-9.277,-39.551,-23.926,-45.410
1664200650.414,-8.789,-36.133,-26.367,-54.688
1664200650.418,15.137,-35.156,-23.438,-47.363
1664200650.422,8.301,-37.109,-20.996,-32.227
1664200650.426,-11.719,-39.551,-17.578,-32.227
1664200650.430,-11.719,-39.062,-17.578,-47.363
1664200650.433,-20.508,-40.039,-15.137,-39.551
1664200650.437,3.906,-34.668,-10.254,-30.762
1664200650.441,7.812,-27.344,-11.719,-14.160
1664200650.445,-23.926,-34.180,-16.602,-12.695
1664200650.449,-46.875,-43.945,-15.625,-38.574
1664200650.453,-43.945,-45.898,-13.184,-35.645
1664200650.457,-24.414,-36.621,-16.602,-19.531
1664200650.460,-26.855,-34.180,-14.648,-29.785
1664200650.464,-32.715,-41.992,-17.090,-38.574
1664200650.468,-17.578,-39.551,-15.625,-17.578
1664200650.472,-13.184,-32.715,-12.207,-19.043
1664200650.476,-17.578,-36.133,-18.066,-25.391
1664200650.477,-22.461,-43.945,-21.973,-20.996
1664200650.481,-34.668,-45.898,-26.855,-27.344
1664200650.485,-18.555,-57.617,-27.344,-34.180
1664200650.489,-15.625,-68.848,-25.391,-33.691
1664200650.493,-34.668,-72.266,-21.973,-34.180
1664200650.497,-30.273,-67.383,-17.578,-37.598
1664200650.501,-15.137,-54.688,-19.043,-35.156
1664200650.504,-6.836,-57.129,-15.625,-37.109
1664200650.508,-20.508,-61.035,-16.113,-50.781
1664200650.512,-39.551,-58.594,-21.973,-62.500
1664200650.516,-18.066,-61.523,-21.484,-53.711
1664200650.520,1.953,-63.477,-18.555,-46.387
1664200650.537,-1.465,-57.129,-19.531,-24.902
1664200650.541,13.184,-46.387,-20.508,-5.371
1664200650.545,12.207,-49.316,-12.695,-30.762
1664200650.549,-10.742,-61.523,-7.324,-40.527
1664200650.553,-17.578,-62.500,-13.184,-30.762
1664200650.557,-31.738,-60.547,-28.809,-55.176
1664200650.561,-26.855,-61.035,-37.109,-65.918
1664200650.564,0.977,-57.129,-34.668,-42.480
1664200650.568,1.465,-49.805,-23.926,-34.180
1664200650.572,-15.137,-49.805,-20.996,-47.363
1664200650.576,-23.926,-54.688,-19.531,-37.109
1664200650.580,-16.602,-51.270,-19.043,-25.879
1664200650.582,-7.812,-49.316,-28.809,-34.180
1664200650.586,0.977,-52.246,-26.855,-32.227
1664200650.590,-26.367,-48.828,-24.414,-34.180
1664200650.594,-43.945,-46.875,-24.902,-35.645
1664200650.598,-29.785,-51.270,-21.484,-16.113
1664200650.602,-23.438,-49.316,-13.184,-19.531
1664200650.606,-18.555,-45.410,-15.625,-35.645
1664200650.609,-19.531,-47.852,-18.555,-32.227
1664200650.613,-7.324,-41.016,-15.137,-37.598
1664200650.617,1.465,-39.062,-20.020,-39.551
1664200650.621,-11.719,-44.434,-20.020,-22.461
1664200650.625,-17.090,-40.527,-16.602,-19.043
1664200650.627,-26.367,-43.945,-19.531,-34.668
1664200650.631,-20.020,-43.457,-24.414,-55.664
1664200650.635,-13.672,-36.621,-22.949,-41.992
1664200650.639,-50.293,-43.945,-22.461,-24.414
1664200650.643,-41.504,-46.875,-22.949,-32.227
1664200650.647,-3.418,-43.457,-16.113,-15.625
1664200650.651,-5.371,-47.852,-20.020,-12.207
1664200650.654,-24.414,-46.875,-28.320,-26.367
1664200650.658,-7.812,-40.527,-22.949,-23.926
1664200650.662,-2.441,-44.922,-20.020,-28.320
1664200650.666,-37.598,-49.805,-21.973,-27.832
1664200650.670,-49.316,-47.852,-25.879,-38.574
1664200650.672,-49.316,-48.828,-26.855,-58.105
1664200650.676,-33.691,-48.828,-24.414,-52.734
1664200650.680,-25.879,-49.316,-19.531,-47.852
1664200650.684,-38.574,-51.758,-20.508,-51.758
1664200650.688,-60.059,-48.340,-21.484,-51.758
1664200650.692,-43.457,-45.410,-20.020,-44.922
1664200650.696,-30.273,-46.875,-23.926,-59.082
1664200650.699,-51.270,-48.828,-29.785,-61.035
1664200650.703,-58.105,-45.898,-27.832,-70.312
1664200650.707,-36.133,-41.504,-22.461,-70.801
1664200650.711,-19.043,-36.621,-16.113,-57.129
1664200650.715,-44.922,-32.715,-18.066,-72.754
1664200650.718,-45.410,-29.297,-19.043,-84.473
1664200650.722,-62.500,-41.016,-18.555,-90.820
1664200650.726,-100.586,-51.270,-29.297,-113.281
1664200650.730,-71.777,-39.551,-10.742,-119.141
1664200650.734,-103.027,-46.387,-7.812,-137.695
1664200650.738,-154.785,-55.664,-18.555,-159.180
1664200650.742,-138.184,-50.293,-4.395,-166.016
1664200650.745,-150.879,-49.805,2.930,-205.078
1664200650.749,-181.641,-54.688,3.418,-214.844
1664200650.753,-165.527,-57.617,15.137,-200.195
1664200650.757,-166.016,-53.223,16.113,-217.773
1664200650.761,-227.051,-69.336,3.906,-260.742
1664200650.763,-255.371,-72.754,4.395,-270.996
1664200650.767,-243.652,-79.102,3.906,-287.109
1664200650.771,-257.812,-97.168,6.348,-301.758
1664200650.775,-289.062,-97.656,11.719,-286.621
1664200650.779,-301.270,-102.051,18.066,-302.734
1664200650.783,-306.641,-93.750,21.973,-330.078
1664200650.787,-278.320,-102.539,9.766,-308.105
1664200650.790,-265.625,-100.098,1.465,-286.133
1664200650.794,-279.785,-72.266,-3.418,-279.785
1664200650.798,-252.441,-62.500,-7.812,-246.582
1664200650.802,-221.680,-81.543,-4.883,-225.098
1664200650.806,-175.781,-87.402,-9.277,-206.543
1664200650.808,-148.926,-33.691,-12.207,-151.367
1664200650.812,-119.141,-29.297,-1.953,-123.535
1664200650.816,-62.988,-96.191,0.977,-120.117
1664200650.820,-69.336,-76.172,0.488,-107.910
1664200650.824,-66.895,-24.902,-0.488,-83.008
1664200650.828,-28.809,-8.301,-15.137,-59.570
1664200650.832,-12.207,7.812,-22.461,-47.852
1664200650.835,-2.441,17.090,-19.531,-25.391
1664200650.839,46.875,49.805,-18.066,6.348
1664200650.843,71.777,71.289,-13.672,20.508
1664200650.847,107.910,-45.898,-4.883,37.109
1664200650.851,108.887,-48.828,-7.324,55.176
1664200650.853,81.543,257.324,-14.160,56.152
1664200650.857,87.891,476.074,-5.859,70.312
1664200650.861,100.098,723.633,-5.859,71.777
1664200650.865,116.699,963.867,-10.254,75.684
1664200650.869,111.328,970.215,-2.441,85.449
1664200650.873,98.633,965.820,7.324,78.125
1664200650.877,83.496,972.656,14.160,69.824
1664200650.880,87.891,971.191,14.160,67.383
1664200650.884,93.262,971.191,11.230,64.941
1664200650.888,75.195,971.191,15.137,70.312
1664200650.892,55.664,971.191,16.602,74.219
1664200650.896,43.457,971.191,12.695,73.242
1664200650.913,55.664,971.191,13.184,69.824
1664200650.917,61.523,971.191,14.160,60.059
1664200650.921,50.781,971.680,11.230,51.758
1664200650.925,53.711,971.680,15.625,55.664
1664200650.929,58.594,971.191,22.461,57.617
1664200650.933,37.598,971.191,21.973,58.105
1664200650.937,25.391,971.191,17.578,64.453
1664200650.940,46.875,971.191,20.996,63.965
1664200650.944,44.434,971.191,26.367,69.336
1664200650.948,25.879,971.191,23.926,72.754
1664200650.952,23.438,971.680,25.391,67.871
1664200650.956,22.461,971.680,26.855,46.875
1664200650.958,16.602,971.191,21.973,32.227
1664200650.962,20.508,971.191,18.066,41.504
1664200650.966,21.484,971.191,15.137,34.180
1664200650.970,9.277,971.680,7.324,18.555
1664200650.974,1.953,971.191,1.953,27.832
1664200650.978,34.668,971.191,7.324,41.016
1664200650.982,35.645,971.680,11.230,24.902
1664200650.985,-1.465,970.703,2.441,2.930
1664200650.989,10.742,968.262,-1.953,3.418
1664200650.993,15.137,975.586,-3.418,-2.441
1664200650.997,4.395,911.133,-9.277,-15.137
1664200651.001,4.395,790.527,-17.578,-15.625
1664200651.003,11.719,711.914,-19.531,-5.859
1664200651.007,10.742,631.348,-23.926,-7.324
1664200651.011,13.672,540.527,-27.344,12.207
1664200651.015,14.160,418.945,-19.043,29.785
1664200651.019,-20.020,294.434,-24.414,-12.695
1664200651.023,-23.438,207.031,-34.668,-33.691
1664200651.027,-19.043,139.648,-35.156,-16.113
1664200651.030,-38.574,62.500,-35.156,-19.531
1664200651.034,-17.578,-37.598,-35.645,-29.297
1664200651.038,-11.230,-123.047,-34.180,-17.090
1664200651.042,-5.371,-176.270,-31.250,-5.859
1664200651.046,10.254,-218.262,-34.180,-5.371
1664200651.048,19.043,-256.348,-36.621,-16.602
1664200651.052,20.508,-305.176,-37.109,-4.395
1664200651.056,9.277,-374.023,-35.156,8.789
1664200651.060,33.203,-416.992,-34.668,5.371
1664200651.064,27.832,-452.637,-38.086,5.371
1664200651.068,10.742,-474.609,-40.039,7.812
1664200651.072,42.480,-528.320,-40.039,-7.812
1664200651.075,43.457,-692.871,-47.363,-25.879
1664200651.079,21.484,-790.039,-47.852,-14.648
1664200651.083,12.695,-793.945,-46.387,-4.883
1664200651.087,16.602,-855.469,-44.922,-13.184
1664200651.091,36.133,-932.617,-44.922,-20.508
1664200651.093,60.059,-949.707,-51.270,-7.812
1664200651.097,49.316,-958.008,-49.805,-6.836
1664200651.101,22.461,-962.402,-53.711,-26.855
1664200651.105,31.250,-981.934,-57.617,-33.203
1664200651.109,40.527,-998.047,-52.246,-20.020
1664200651.113,36.621,-1000.000,-48.340,-15.625
1664200651.117,38.574,-1000.000,-48.340,-14.160
1664200651.120,42.480,-988.281,-51.758,-20.020
1664200651.124,37.109,-968.750,-50.293,-12.207
1664200651.128,34.180,-969.727,-45.898,-5.859
1664200651.132,34.668,-962.402,-46.387,-15.137
1664200651.136,20.020,-932.617,-49.805,-21.484
1664200651.138,36.133,-900.879,-51.270,-6.836
1664200651.142,61.035,-867.188,-53.711,-19.531
1664200651.146,18.066,-832.031,-56.152,-38.086
1664200651.150,-11.719,-806.641,-57.129,-24.902
1664200651.154,-3.418,-797.852,-60.547,-32.715
1664200651.158,-4.883,-790.039,-60.547,-27.344
1664200651.162,-0.977,-774.414,-54.199,-21.484
1664200651.165,-0.977,-761.230,-53.223,-20.508
1664200651.169,4.883,-735.840,-49.805,-20.996
1664200651.173,26.367,-742.188,-47.363,-28.809
1664200651.177,18.066,-739.258,-50.293,-34.668
1664200651.181,-0.488,-692.871,-55.176,-33.691
1664200651.183,9.277,-666.992,-41.016,-35.645
1664200651.187,-30.273,-662.109,-26.855,-63.477
1664200651.191,-56.152,-637.695,-30.762,-63.477
1664200651.195,-20.020,-609.375,-24.414,-35.156
1664200651.199,-13.184,-598.633,-20.996,-44.922
1664200651.203,-10.254,-563.965,-22.949,-35.645
1664200651.207,-8.789,-511.230,-25.879,-35.645
1664200651.210,-17.090,-472.656,-34.180,-50.781
1664200651.214,-18.066,-439.941,-31.738,-61.523
1664200651.218,-2.930,-419.922,-25.879,-60.059
1664200651.222,21.484,-403.320,-32.227,-48.828
1664200651.226,-1.465,-368.652,-37.598,-45.410
1664200651.227,-25.879,-346.680,-33.691,-46.875
1664200651.231,-15.137,-328.613,-31.250,-56.152
1664200651.235,-1.465,-303.711,-27.344,-51.270
1664200651.239,13.184,-281.738,-23.926,-46.875
1664200651.243,18.555,-265.625,-21.973,-43.945
1664200651.247,20.508,-246.094,-18.066,-38.574
1664200651.251,7.324,-228.027,-21.973,-23.438
1664200651.254,6.348,-231.934,-20.996,-21.973
1664200651.258,6.348,-223.633,-16.113,-39.551
1664200651.262,16.113,-211.426,-18.555,-38.574
1664200651.266,35.645,-199.219,-16.113,-22.461
1664200651.270,19.531,-169.434,-17.090,-20.996
1664200651.288,16.113,-118.164,-21.484,-14.648
1664200651.292,14.648,-91.797,-26.367,-8.789
1664200651.296,20.020,-99.121,-26.367,-27.832
1664200651.300,28.320,-98.633,-20.508,-18.066
1664200651.304,16.113,-88.379,-18.555,-10.254
1664200651.308,17.090,-90.332,-23.438,-28.320
1664200651.312,18.555,-92.773,-15.137,-8.789
1664200651.315,10.254,-82.520,-8.789,-5.859
1664200651.319,7.324,-85.938,-4.395,-24.902
1664200651.323,0.488,-86.426,4.395,-19.043
1664200651.327,-2.441,-79.590,3.906,-15.137
1664200651.331,-1.465,-83.008,2.930,-18.555
1664200651.348,14.648,-86.426,3.418,-11.230
1664200651.352,15.625,-78.125,1.465,-4.395
1664200651.356,-26.367,-83.008,-4.395,-22.461
1664200651.360,-24.414,-95.215,-5.859,-34.180
1664200651.364,-4.883,-85.938,-10.254,-33.203
1664200651.368,-12.207,-76.172,-15.137,-36.133
1664200651.372,-12.207,-78.613,-16.602,-44.434
1664200651.375,-23.438,-77.637,-15.137,-50.293
1664200651.379,-27.832,-64.453,-14.160,-39.551
1664200651.383,-19.531,-62.988,-21.973,-34.180
1664200651.387,-17.578,-72.266,-23.926,-43.457
1664200651.391,-22.461,-71.289,-19.531,-32.715
1664200651.377,22.949,-74.219,-14.648,4.883
1664200651.381,54.199,-74.707,-6.348,23.438
1664200651.385,0.977,-58.594,-14.160,-22.949
1664200651.389,-44.434,-57.129,-36.621,-66.895
1664200651.393,-22.949,-62.500,-44.922,-53.223
1664200651.397,2.930,-66.406,-43.945,-44.434
1664200651.401,6.836,-84.961,-44.434,-41.016
1664200651.404,9.766,-82.520,-46.387,-39.551
1664200651.408,4.395,-50.293,-49.805,-62.012
1664200651.412,10.742,-46.387,-54.199,-58.105
1664200651.416,0.000,-65.430,-50.781,-39.062
1664200651.420,-18.555,-65.918,-42.969,-36.133
1664200651.423,2.441,-43.945,-40.527,-26.855
1664200651.427,30.273,-40.527,-36.133,-7.324
1664200651.431,33.203,-57.617,-33.203,-5.859
1664200651.435,40.039,-58.594,-41.016,-17.578
1664200651.439,20.020,-44.434,-46.875,-13.184
1664200651.443,4.395,-40.527,-42.480,-17.090
1664200651.447,12.207,-44.922,-39.062,-26.367
1664200651.450,3.418,-56.152,-37.109,-24.902
1664200651.454,4.395,-46.387,-34.180,-24.902
1664200651.458,7.812,-32.715,-35.645,-16.602
1664200651.462,9.766,-32.227,-39.551,-33.691
1664200651.466,9.277,-4.395,-40.527,-41.992
1664200651.468,1.953,-11.230,-41.016,-31.250
1664200651.472,4.395,-32.227,-37.598,-41.992
1664200651.476,14.648,-9.277,-34.180,-34.180
1664200651.480,7.324,16.113,-34.668,-16.113
1664200651.484,1.465,32.715,-31.738,-27.344
1664200651.488,8.301,41.016,-27.344,-52.734
1664200651.492,4.395,46.387,-27.832,-44.922
1664200651.495,-0.488,52.734,-28.320,-33.203
1664200651.499,-4.395,60.547,-24.414,-28.809
1664200651.503,-11.230,63.965,-19.531,-32.715
1664200651.507,-3.906,103.027,-17.090,-41.016
1664200651.511,3.418,178.711,-16.602,-31.250
1664200651.513,-7.324,221.191,-18.555,-36.133
1664200651.517,-12.207,233.398,-19.531,-38.574
1664200651.521,5.859,240.234,-16.113,-33.691
1664200651.525,22.461,241.211,-14.160,-33.203
1664200651.529,19.531,241.211,-17.578,-33.691
1664200651.533,-14.648,237.793,-18.066,-42.480
1664200651.537,-13.184,233.887,-18.066,-37.109
1664200651.540,10.254,226.074,-19.043,-36.133
1664200651.544,-2.930,225.586,-20.508,-49.316
1664200651.548,-12.207,224.121,-21.973,-50.781
1664200651.552,1.953,229.980,-20.508,-49.805
1664200651.556,12.695,239.746,-18.066,-53.223
1664200651.558,-0.488,226.562,-20.508,-52.734
1664200651.562,-7.324,205.078,-20.020,-51.758
1664200651.566,-1.953,196.777,-16.113,-59.082
1664200651.570,-19.043,181.152,-17.090,-51.758
1664200651.574,-16.602,158.203,-19.043,-46.875
1664200651.578,-11.719,145.996,-21.484,-55.664
1664200651.582,-12.695,149.902,-30.762,-45.898
1664200651.585,3.906,152.344,-29.297,-22.949
1664200651.589,-5.371,133.301,-14.160,-31.250
1664200651.593,-19.043,125.000,-9.766,-44.434
1664200651.597,-24.902,120.117,-6.836,-49.316
1664200651.601,-35.645,106.934,-3.418,-51.270
1664200651.603,-24.902,88.379,1.953,-31.250
1664200651.607,-25.879,68.848,-1.953,-37.109
1664200651.611,-28.809,66.406,-16.602,-54.688
1664200651.615,-22.949,71.289,-20.996,-39.062
1664200651.619,-29.785,69.824,-19.043,-26.367
1664200651.623,-18.555,63.965,-17.578,-21.484
1664200651.627,-25.879,49.805,-16.602,-38.086
1664200651.630,-42.969,38.086,-17.578,-60.059
1664200651.634,-21.973,39.062,-14.648,-36.621
1664200651.638,-22.949,24.902,-18.066,-41.992
1664200651.642,-46.875,10.742,-22.949,-48.828
1664200651.646,-49.316,10.742,-22.949,-33.203
1664200651.662,-21.484,7.324,-16.113,-42.969
1664200651.666,-11.719,-3.418,-11.719,-44.922
1664200651.670,-41.016,-7.812,-12.695,-41.016
1664200651.674,-49.316,-0.488,-14.160,-51.758
1664200651.678,-37.598,5.859,-16.113,-58.105
1664200651.682,-11.230,4.395,-13.184,-46.387
1664200651.686,-11.230,-7.324,-17.578,-42.480
1664200651.689,-47.852,-19.043,-24.414,-46.875
1664200651.693,-50.293,-19.043,-19.043,-53.711
1664200651.697,-31.738,-28.809,-20.508,-52.246
1664200651.701,-30.762,-37.109,-23.438,-36.133
1664200651.705,-34.668,-37.109,-20.020,-39.551
1664200651.707,-37.109,-45.898,-17.090,-42.480
1664200651.711,-47.852,-46.387,-15.625,-40.527
1664200651.715,-28.320,-47.852,-14.160,-41.504
1664200651.719,-15.625,-58.594,-18.066,-31.250
1664200651.723,-38.086,-63.477,-20.508,-37.598
1664200651.727,-42.480,-65.918,-18.555,-41.504
1664200651.731,-33.203,-64.453,-24.902,-41.504
1664200651.734,-22.461,-61.035,-30.762,-50.781
1664200651.738,-25.391,-54.688,-28.809,-48.828
1664200651.742,-39.062,-54.688,-23.926,-35.156
1664200651.746,-38.574,-72.266,-22.461,-35.645
1664200651.750,-20.020,-72.266,-20.020,-42.480
1664200651.753,-31.738,-75.195,-22.461,-50.293
1664200651.757,-39.551,-87.891,-27.832,-59.082
1664200651.761,-17.578,-86.426,-23.438,-48.340
1664200651.765,-28.320,-83.496,-21.484,-40.039
1664200651.769,-25.391,-80.566,-20.020,-40.039
1664200651.773,-18.555,-78.613,-18.066,-61.035
1664200651.777,-17.578,-86.426,-18.066,-63.477
1664200651.780,-11.230,-90.332,-15.137,-44.434
1664200651.784,-20.508,-85.938,-19.043,-27.832
1664200651.788,-25.879,-88.379,-17.578,-39.551
1664200651.792,-23.926,-102.051,-18.066,-46.875
1664200651.796,-10.742,-107.910,-22.461,-33.203
1664200651.797,-12.695,-101.074,-18.555,-31.250
1664200651.801,3.906,-100.586,-18.066,-46.875
1664200651.805,-16.602,-105.957,-19.531,-54.688
1664200651.809,-48.828,-102.539,-16.113,-44.434
1664200651.813,-19.043,-99.609,-20.996,-28.809
1664200651.817,-15.625,-108.398,-28.320,-40.527
1664200651.821,-37.598,-110.840,-22.461,-58.105
1664200651.824,-43.457,-99.121,-20.996,-35.156
1664200651.828,-25.879,-93.750,-30.762,-35.156
1664200651.832,-10.742,-103.027,-29.297,-45.898
1664200651.836,-22.461,-111.816,-28.809,-40.527
1664200651.840,-18.555,-97.168,-27.832,-30.273
1664200651.843,-5.371,-82.031,-21.484,-26.367
1664200651.847,-8.789,-76.660,-23.438,-33.203
1664200651.851,-9.277,-78.613,-27.832,-36.133
1664200651.855,-16.113,-87.402,-26.855,-27.344
1664200651.859,-25.391,-88.379,-25.391,-36.133
1664200651.863,-19.043,-95.703,-26.855,-33.203
1664200651.867,0.977,-116.211,-28.809,-31.738
1664200651.870,10.254,-111.328,-24.902,-42.969
1664200651.874,7.324,-87.891,-25.879,-33.691
1664200651.878,-1.465,-82.520,-31.738,-23.438
1664200651.882,-5.371,-85.449,-34.668,-23.438
1664200651.886,-5.371,-85.938,-32.715,-36.133
1664200651.888,0.488,-81.055,-28.320,-30.762
1664200651.892,6.348,-62.500,-23.926,-17.090
1664200651.896,-5.859,-48.828,-26.367,-30.762
1664200651.900,-22.949,-54.199,-35.156,-33.691
1664200651.904,6.348,-62.988,-29.785,-29.297
1664200651.908,39.062,-51.758,-19.043,-24.902
1664200651.912,-20.020,-23.926,-26.367,-37.109
1664200651.915,-48.828,4.395,-36.621,-58.594
1664200651.919,-17.090,22.461,-28.320,-43.945
1664200651.923,-5.371,20.020,-21.484,-22.461
1664200651.927,-17.090,22.949,-26.855,-35.645
1664200651.931,-15.625,52.734,-25.391,-41.016
1664200651.933,-23.926,103.516,-18.555,-37.598
1664200651.937,-16.113,128.418,-13.672,-41.992
1664200651.941,-21.484,142.090,-16.113,-44.434
1664200651.945,-40.527,155.273,-18.555,-50.781
1664200651.949,-39.062,166.992,-19.531,-49.805
1664200651.953,-24.414,174.316,-16.602,-34.180
1664200651.957,-6.348,191.895,-21.484,-21.484
1664200651.960,0.488,215.332,-28.320,-2.930
1664200651.964,12.207,219.727,-14.160,-15.137
1664200651.968,-7.324,219.238,-7.812,-46.387
1664200651.972,-28.320,208.496,-11.719,-46.387
1664200651.976,-11.230,188.965,-6.348,-31.738
1664200651.977,-6.348,174.316,-1.953,-24.414
1664200651.981,-33.691,173.828,-5.859,-29.297
1664200651.985,-38.086,169.434,-9.277,-30.762
1664200651.989,-40.527,155.762,-15.137,-33.691
1664200651.993,-51.270,165.039,-17.090,-34.180
1664200651.997,-39.062,227.539,-12.695,-41.016
1664200652.001,-10.742,270.508,-14.160,-38.086
1664200652.004,3.418,244.141,-14.160,-21.484
1664200652.008,-19.531,229.980,-11.230,-31.738
1664200652.012,-35.645,245.117,-12.695,-32.715
1664200652.016,-47.363,244.141,-15.137,-33.691
1664200652.020,-44.434,229.980,-12.207,-44.434
1664200652.038,-29.297,216.309,-7.324,-40.039
1664200652.042,-30.273,194.336,-5.371,-35.645
1664200652.046,-32.715,179.199,-9.766,-33.203
1664200652.050,8.789,179.199,-12.695,-38.086
1664200652.054,-1.953,171.875,-15.137,-28.809
1664200652.058,-41.016,158.203,-14.648,-24.902
1664200652.062,-46.875,145.508,-10.254,-23.926
1664200652.065,-47.852,140.137,-12.695,-23.438
1664200652.069,-32.227,137.695,-16.113,-31.738
1664200652.073,-34.668,132.812,-11.719,-29.785
1664200652.077,-49.805,117.188,-10.254,-20.508
1664200652.081,-36.133,90.332,-11.719,-32.715
1664200652.083,-19.531,84.473,-15.625,-37.598
1664200652.087,-20.020,86.914,-28.320,-30.273
1664200652.091,-29.785,79.590,-27.832,-34.180
1664200652.095,-54.199,79.102,-17.578,-42.480
1664200652.099,-51.270,75.195,-22.949,-34.180
1664200652.103,-47.363,63.965,-29.785,-28.320
1664200652.107,-54.688,50.781,-30.762,-41.016
1664200652.110,-56.152,48.828,-31.250,-39.551
1664200652.114,-43.457,55.664,-26.367,-35.156
1664200652.118,-44.922,51.270,-26.855,-34.668
1664200652.122,-51.758,40.039,-29.785,-37.598
1664200652.126,-43.945,36.133,-27.832,-50.781
1664200652.127,-33.691,27.832,-24.414,-47.363
1664200652.131,-44.434,23.926,-31.250,-47.852
1664200652.135,-46.875,27.832,-36.133,-46.387
1664200652.139,-44.922,24.414,-32.715,-50.293
1664200652.143,-44.922,15.137,-29.785,-74.219
1664200652.147,-50.781,-1.465,-25.879,-62.012
1664200652.151,-38.086,-16.113,-27.832,-34.668
1664200652.154,-29.785,-17.090,-21.484,-43.945
1664200652.158,-35.645,-8.301,-20.020,-55.664
1664200652.162,-23.926,-15.625,-26.855,-47.852
1664200652.166,-15.625,-24.902,-25.879,-43.457
1664200652.170,-30.762,-20.996,-25.391,-45.410
1664200652.173,-24.414,-19.531,-23.438,-46.387
1664200652.177,-13.184,-22.949,-22.461,-39.062
1664200652.181,-18.066,-26.367,-23.438,-33.203
1664200652.185,-15.137,-27.832,-20.996,-27.832
1664200652.189,-21.973,-33.691,-20.996,-35.645
1664200652.193,-23.926,-33.203,-16.113,-39.551
1664200652.197,-20.508,-34.180,-14.160,-29.297
1664200652.200,-18.066,-37.598,-19.531,-16.113
1664200652.204,-28.320,-26.855,-20.996,-28.809
1664200652.208,-25.391,-28.320,-12.207,-39.062
1664200652.212,-9.766,-35.645,-5.859,-24.902
1664200652.216,-7.812,-31.738,-5.859,-20.508
1664200652.218,-20.020,-29.297,-4.395,-37.109
1664200652.222,-18.066,-36.621,-2.930,-40.039
1664200652.226,1.953,-43.457,-6.836,-27.344
1664200652.230,0.000,-51.758,-10.254,-32.227
1664200652.234,-14.160,-51.270,-11.719,-41.016
1664200652.238,-20.508,-40.527,-13.672,-38.086
1664200652.242,-25.879,-49.805,-18.555,-20.508
1664200652.245,-13.672,-54.688,-22.461,-8.301
1664200652.249,-4.883,-66.406,-20.020,-27.832
1664200652.253,9.766,-64.941,-20.508,-23.438
1664200652.257,20.508,-51.758,-24.414,-15.625
1664200652.261,3.906,-52.246,-24.414,-28.809
1664200652.277,0.000,-55.176,-19.531,-30.762
1664200652.281,14.160,-60.547,-21.973,-20.508
1664200652.285,19.531,-62.012,-28.809,-12.695
1664200652.289,15.625,-54.688,-27.344,-17.578
1664200652.293,1.953,-54.688,-19.043,-22.949
1664200652.297,-1.465,-59.570,-13.184,-20.020
1664200652.301,-2.930,-49.805,-11.230,-22.461
1664200652.304,-9.766,-45.898,-21.484,-28.320
1664200652.308,0.488,-51.270,-22.949,-36.621
1664200652.312,-12.695,-47.852,-15.137,-64.453
1664200652.316,-27.832,-44.922,-7.812,-71.777
1664200652.320,-43.457,-53.711,-6.348,-89.355
1664200652.308,-87.891,-68.848,-17.578,-121.582
1664200652.312,-104.004,-69.824,-10.254,-121.582
1664200652.316,-106.445,-76.172,2.441,-144.531
1664200652.320,-150.879,-81.055,-2.441,-167.480
1664200652.324,-174.805,-75.195,6.836,-179.688
1664200652.328,-183.105,-89.355,19.531,-199.219
1664200652.332,-204.102,-95.703,0.488,-223.145
1664200652.335,-218.750,-100.586,-14.648,-256.348
1664200652.339,-219.238,-108.887,-16.602,-271.973
1664200652.343,-223.633,-109.863,-7.324,-271.484
1664200652.347,-254.883,-126.953,-3.906,-283.203
1664200652.351,-278.809,-139.160,-8.301,-291.016
1664200652.352,-290.039,-128.906,-12.695,-284.180
1664200652.356,-269.043,-114.258,-21.484,-282.227
1664200652.360,-271.973,-119.141,-26.855,-285.156
1664200652.364,-250.977,-112.793,-28.320,-273.438
1664200652.368,-214.355,-108.887,-24.902,-252.441
1664200652.372,-222.168,-122.070,-20.020,-229.980
1664200652.376,-214.844,-115.723,-24.902,-217.773
1664200652.379,-219.727,-105.957,-35.156,-229.980
1664200652.383,-180.176,-96.680,-39.062,-195.312
1664200652.387,-129.883,-93.262,-40.527,-155.762
1664200652.391,-111.328,-89.844,-41.992,-132.812
1664200652.395,-87.891,-80.078,-41.504,-107.422
1664200652.413,-57.129,-81.055,-41.504,-90.332
1664200652.417,-28.320,-79.590,-40.039,-60.059
1664200652.421,-31.738,-81.543,-34.668,-37.109
1664200652.425,-20.996,-87.402,-38.574,-16.113
1664200652.429,11.719,-80.566,-31.738,10.254
1664200652.433,18.555,-68.359,-21.484,20.996
1664200652.437,24.414,-56.641,-23.926,29.297
1664200652.440,43.457,-56.641,-22.949,39.551
1664200652.444,18.066,-55.176,-24.902,38.086
1664200652.448,23.926,-36.621,-31.250,33.203
1664200652.452,53.711,-35.156,-31.250,42.480
1664200652.456,45.410,-48.828,-31.250,50.781
1664200652.458,44.434,-42.480,-32.715,51.758
1664200652.462,70.312,-28.320,-33.203,66.406
1664200652.466,96.680,-26.855,-29.297,75.195
1664200652.470,83.984,-32.227,-27.832,78.125
1664200652.474,69.336,-34.668,-36.133,70.801
1664200652.478,78.613,-21.973,-41.504,59.570
1664200652.482,93.750,-15.625,-41.016,63.477
1664200652.485,111.328,-18.066,-38.574,69.336
1664200652.489,98.145,-8.789,-35.645,75.684
1664200652.493,82.031,-3.906,-35.156,71.289
1664200652.497,95.703,4.883,-35.156,75.684
1664200652.501,92.773,2.930,-29.297,77.148
1664200652.502,86.426,-13.672,-30.273,64.453
1664200652.506,88.379,-10.742,-37.598,55.176
1664200652.510,82.031,-13.672,-30.273,45.410
1664200652.514,73.730,-17.090,-28.809,51.758
1664200652.518,61.035,-8.301,-36.621,47.363
1664200652.522,71.777,-11.230,-35.645,37.598
1664200652.526,68.848,-10.254,-34.668,40.527
1664200652.529,59.570,-9.277,-38.086,44.922
1664200652.533,70.801,-12.695,-39.062,45.410
1664200652.537,77.637,-5.859,-32.715,40.527
1664200652.541,76.172,-7.324,-25.391,28.809
1664200652.545,35.156,-18.066,-25.879,28.320
1664200652.547,12.695,-27.344,-34.668,20.508
1664200652.551,19.531,-25.879,-40.039,6.836
1664200652.555,21.973,-13.184,-40.039,-0.977
1664200652.559,39.062,-16.602,-39.551,-3.906
1664200652.563,59.570,-25.879,-41.992,-4.883
1664200652.567,37.598,-13.672,-46.875,1.953
1664200652.571,7.812,-5.859,-40.527,8.789
1664200652.574,31.250,-7.324,-33.691,3.906
1664200652.578,46.387,-14.160,-37.109,7.324
1664200652.582,16.602,-18.066,-37.109,0.488
1664200652.586,5.859,-27.344,-33.203,-4.395
1664200652.590,26.367,-31.738,-27.344,-2.441
1664200652.592,38.574,-12.695,-30.762,-7.812
1664200652.596,23.926,-13.184,-37.109,-9.766
1664200652.600,31.250,-19.043,-33.691,-1.465
1664200652.604,46.875,-1.953,-34.668,-0.977
1664200652.608,38.574,4.395,-43.457,-29.297
1664200652.612,27.832,0.488,-57.129,-46.387
1664200652.616,8.789,-4.883,-58.105,-18.555
1664200652.619,0.488,-8.301,-43.945,-12.695
1664200652.623,10.254,-16.113,-37.109,-29.785
1664200652.627,18.555,-23.438,-35.645,-27.832
1664200652.631,20.020,-13.184,-38.574,-14.160
1664200652.635,24.414,-3.906,-33.203,-4.883
1664200652.637,34.668,-11.230,-30.273,-5.371
1664200652.641,19.531,-25.391,-27.344,-15.137
1664200652.645,-0.488,-39.062,-21.973,-10.254
1664200652.649,8.789,-47.852,-22.461,-1.465
1664200652.653,12.207,-36.621,-21.973,7.324
1664200652.657,5.859,-20.996,-21.484,3.418
1664200652.661,0.488,-10.742,-23.438,-6.348
1664200652.664,-4.883,-11.230,-23.438,-2.930
1664200652.668,31.250,-20.020,-17.090,-13.672
1664200652.672,24.414,-27.832,-19.531,-14.160
1664200652.676,-23.438,-30.762,-26.367,-18.555
1664200652.680,-42.969,-31.738,-29.297,-37.598
1664200652.682,-40.039,-25.879,-27.832,-39.551
1664200652.686,-10.742,-34.180,-24.902,-17.090
1664200652.690,9.766,-37.598,-25.879,-10.742
1664200652.694,-7.812,-15.625,-24.414,-22.461
1664200652.698,-15.625,-10.254,-23.926,-29.297
1664200652.702,6.348,-8.789,-21.484,-26.367
1664200652.706,24.902,-5.859,-22.461,-12.695
1664200652.709,17.578,-28.320,-21.973,6.836
1664200652.713,13.184,-35.156,-17.090,10.254
1664200652.717,24.414,-24.902,-17.090,-7.324
1664200652.721,9.766,-14.160,-19.043,-18.555
1664200652.725,0.488,-1.465,-23.926,-24.902
1664200652.727,-2.441,-7.324,-27.344,-23.926
1664200652.731,2.930,-6.836,-23.438,-20.020
1664200652.735,17.090,3.418,-16.113,-10.254
1664200652.739,-5.371,-4.883,-21.484,-18.555
1664200652.743,-17.090,-27.344,-27.832,-32.227
1664200652.747,-5.859,-29.785,-29.785,-23.926
1664200652.751,-8.301,-12.695,-32.715,-31.250
1664200652.754,-10.254,-2.930,-32.715,-36.621
1664200652.758,-9.766,3.906,-36.621,-37.598
1664200652.762,-18.066,-13.672,-38.086,-39.551
1664200652.766,-19.043,-16.602,-34.180,-34.180
1664200652.770,-2.441,-7.324,-33.203,-29.785
1664200652.787,13.672,-12.207,-30.762,-30.762
1664200652.791,-17.578,-20.996,-25.391,-31.738
1664200652.795,-36.621,-11.230,-24.902,-31.250
1664200652.799,-20.508,-2.441,-24.902,-32.227
1664200652.803,-20.996,-14.160,-18.555,-27.344
1664200652.807,-18.555,-4.395,-17.578,-25.879
1664200652.811,0.977,9.766,-19.043,-20.508
1664200652.814,20.508,15.137,-12.207,-31.250
1664200652.818,6.836,19.531,-1.465,-35.156
1664200652.822,-32.227,23.438,-4.883,-26.855
1664200652.826,-18.555,20.996,-18.066,-16.602
1664200652.830,23.438,27.344,-19.043,2.441
1664200652.832,2.441,31.738,-8.789,-20.020
1664200652.836,-38.574,25.391,0.977,-32.715
1664200652.840,-32.715,21.484,7.324,-25.391
1664200652.844,-24.902,21.973,5.859,-33.691
1664200652.848,-17.578,21.973,-1.953,-27.344
1664200652.852,-8.789,20.996,-7.324,-34.668
1664200652.856,-17.090,22.461,-8.301,-41.504
1664200652.859,-6.836,13.184,-8.789,-35.156
1664200652.863,9.766,5.859,-13.672,-35.156
1664200652.867,-8.789,19.043,-11.719,-30.762
1664200652.871,-34.668,28.809,-7.324,-28.809
1664200652.875,-27.832,21.973,-13.184,-25.391
1664200652.878,-0.977,0.977,-15.625,-13.184
1664200652.882,6.836,-3.906,-15.625,0.000
1664200652.886,11.230,24.414,-10.254,-1.465
1664200652.890,0.977,24.902,-5.371,-24.414
1664200652.894,-6.836,9.766,-15.625,-23.926
1664200652.898,12.695,31.250,-21.973,-20.508
1664200652.902,-21.484,39.062,-19.531,-29.297
1664200652.905,-45.898,28.809,-18.555,-30.762
1664200652.909,-13.184,28.320,-16.602,-22.461
1664200652.913,0.488,14.648,-12.207,-10.742
1664200652.917,5.371,-2.441,-18.066,-4.883
1664200652.921,9.277,9.766,-22.461,0.000
1664200652.923,8.789,20.508,-18.066,-5.371
1664200652.927,11.719,12.695,-19.043,-19.531
1664200652.931,11.719,15.137,-15.137,-4.883
1664200652.935,3.906,26.367,-11.230,5.859
1664200652.939,-9.277,24.902,-14.648,-3.906
1664200652.943,-13.672,20.020,-17.578,-15.625
1664200652.947,-6.348,13.184,-20.996,-19.043
1664200652.950,5.371,13.184,-26.367,-19.043
1664200652.954,8.301,22.461,-25.879,-23.926
1664200652.958,18.066,26.367,-25.391,-24.414
1664200652.962,13.184,20.508,-28.320,-16.602
1664200652.966,13.184,15.625,-22.461,-17.578
1664200652.968,21.973,20.996,-21.973,-15.137
1664200652.972,22.461,16.113,-21.484,-7.812
1664200652.976,6.348,10.254,-19.043,-20.508
1664200652.980,6.348,18.555,-19.043,-21.484
1664200652.984,2.441,18.066,-17.578,-16.113
1664200652.988,-3.418,4.883,-16.113,-17.578
1664200652.992,23.438,1.465,-13.184,-7.324
1664200652.995,17.578,8.301,-20.020,-22.949
1664200652.999,-15.137,16.113,-25.391,-35.156
1664200653.003,-9.277,20.508,-19.531,-38.574
1664200653.007,9.766,19.531,-20.508,-47.363
1664200653.011,13.672,24.902,-26.855,-12.207
1664200653.013,13.672,29.297,-23.438,-3.418
1664200653.017,-25.879,15.625,-17.090,-36.133
1664200653.021,-39.062,7.324,-14.160,-49.805
1664200653.025,-16.113,0.488,-14.648,-41.016
1664200653.029,-17.090,-7.812,-16.113,-49.316
1664200653.033,-41.992,-6.348,-15.137,-41.504
1664200653.037,-42.969,-5.859,-15.137,-20.996
1664200653.040,-13.672,-10.254,-18.066,-41.016
1664200653.044,-16.113,-4.883,-14.648,-51.758
1664200653.048,-58.594,4.395,-14.648,-36.621
1664200653.052,-59.082,-1.953,-22.461,-45.410
1664200653.056,-43.945,-5.859,-23.438,-52.734
1664200653.058,-33.203,-6.348,-18.066,-36.133
1664200653.062,-17.578,-8.789,-18.066,-32.715
1664200653.066,-19.531,-9.766,-22.461,-21.484
1664200653.070,-4.883,-7.324,-14.160,13.184
1664200653.074,-3.906,-6.836,-14.648,-0.977
1664200653.078,1.465,-4.395,-26.367,-18.066
1664200653.082,-0.488,-11.230,-31.738,-20.508
1664200653.085,-10.254,-19.043,-34.668,-15.625
1664200653.089,-7.324,-15.625,-26.855,-16.602
1664200653.093,-1.465,-13.184,-24.414,-21.484
1664200653.097,-0.488,-11.719,-30.273,-29.297
1664200653.101,3.418,-20.996,-36.621,-34.180
1664200653.118,-2.441,-21.973,-39.551,-23.926
1664200653.122,-22.949,-14.648,-30.762,-23.438
1664200653.126,-10.742,-20.508,-22.949,-29.297
1664200653.130,0.977,-28.809,-25.879,-35.156
1664200653.134,17.090,-18.066,-36.133,-29.297
1664200653.138,11.230,2.930,-34.180,-15.625
1664200653.142,-4.883,7.812,-27.832,-22.949
1664200653.145,-0.488,7.812,-28.809,-17.090
1664200653.149,2.930,10.254,-30.762,-20.508
1664200653.153,7.812,2.930,-31.250,-38.574
1664200653.157,19.043,-10.254,-25.879,-39.062
1664200653.161,9.277,-8.301,-25.879,-39.062
1664200653.178,-4.883,14.648,-35.156,-34.668
1664200653.182,9.277,29.297,-38.086,-20.508
1664200653.186,20.020,19.531,-30.762,-14.160
1664200653.190,-3.906,18.066,-31.250,-24.902
1664200653.194,-17.578,18.555,-36.133,-36.621
1664200653.198,2.441,64.453,-30.762,-44.922
1664200653.202,3.418,150.879,-33.691,-39.062
1664200653.205,-16.113,170.410,-38.086,-30.273
1664200653.209,-7.812,162.109,-42.480,-32.715
1664200653.213,27.344,156.250,-48.828,-20.020
1664200653.217,8.301,155.762,-47.363,-31.250
1664200653.221,-40.039,163.574,-50.781,-56.152
1664200653.208,-30.762,150.391,-44.922,-55.176
1664200653.212,-21.973,140.137,-41.016,-47.852
1664200653.216,-22.461,142.090,-40.039,-44.922
1664200653.220,-27.832,140.137,-35.645,-39.062
1664200653.224,-48.828,140.137,-31.250,-41.504
1664200653.228,-44.434,170.898,-30.762,-44.922
1664200653.232,-27.344,194.824,-35.645,-34.668
1664200653.235,-38.086,189.941,-34.668,-39.551
1664200653.239,-38.086,184.570,-35.645,-45.410
1664200653.243,-15.137,179.688,-32.715,-19.531
1664200653.247,-34.180,164.551,-31.250,-12.695
1664200653.251,-53.223,148.926,-38.086,-52.246
1664200653.253,-54.199,145.508,-39.062,-45.898
1664200653.257,-47.363,137.207,-41.504,-29.785
1664200653.261,-40.039,131.836,-40.039,-28.809
1664200653.265,-31.738,117.188,-41.992,-20.508
1664200653.269,-6.836,94.727,-43.945,-41.992
1664200653.273,-17.578,92.285,-42.480,-40.039
1664200653.277,-56.641,106.445,-45.410,-34.180
1664200653.280,-53.711,110.352,-43.945,-46.875
1664200653.284,-50.293,96.191,-44.434,-60.547
1664200653.288,-50.781,84.961,-43.945,-62.012
1664200653.292,-29.785,86.426,-39.062,-40.527
1664200653.296,-10.254,73.730,-39.062,-31.250
1664200653.298,-14.648,60.059,-34.180,-28.809
1664200653.302,-17.090,51.270,-33.691,-7.812
1664200653.306,-23.926,42.969,-32.715,-16.113
1664200653.310,-21.484,44.434,-26.855,-33.691
1664200653.314,-6.836,32.227,-31.250,-29.785
1664200653.318,-30.273,25.391,-34.668,-32.715
1664200653.322,-46.875,32.715,-32.715,-36.621
1664200653.325,-41.016,26.367,-38.574,-35.645
1664200653.329,-22.461,18.555,-39.062,-32.715
1664200653.333,-8.301,20.996,-31.250,-33.203
1664200653.337,-16.113,21.973,-34.668,-37.598
1664200653.341,-27.344,14.160,-34.668,-37.109
1664200653.343,-23.438,8.789,-27.832,-28.809
1664200653.347,-21.973,7.324,-27.832,-28.320
1664200653.351,-31.738,2.930,-30.273,-37.109
1664200653.355,-22.949,2.930,-28.809,-40.039
1664200653.359,-9.277,-2.930,-29.785,-35.645
1664200653.363,-7.324,-16.113,-28.809,-26.855
1664200653.367,-16.113,-17.578,-25.391,-21.484
1664200653.370,-41.504,-13.184,-31.738,-40.039
1664200653.374,-37.109,-10.254,-31.250,-57.129
1664200653.378,-18.555,-11.719,-26.855,-57.617
1664200653.382,-5.859,-21.484,-34.668,-50.781
1664200653.386,-2.441,-25.879,-36.621,-51.270
1664200653.388,-24.414,-21.484,-33.691,-50.781
1664200653.392,-34.180,-17.090,-36.621,-42.969
1664200653.396,-34.668,-20.020,-37.598,-40.527
1664200653.400,-39.551,-28.320,-33.203,-47.852
1664200653.404,-34.668,-36.133,-31.738,-45.898
1664200653.408,-23.438,-40.039,-30.273,-33.203
1664200653.412,-17.090,-45.410,-31.738,-36.621
1664200653.415,-28.320,-53.223,-34.668,-52.734
1664200653.419,-29.785,-52.246,-28.809,-52.246
1664200653.423,-12.207,-47.363,-23.438,-33.203
1664200653.427,-3.906,-46.875,-21.973,-25.879
1664200653.431,-33.203,-49.805,-20.020,-36.133
1664200653.433,-33.691,-56.152,-20.996,-47.852
1664200653.437,-13.184,-60.059,-27.344,-49.805
1664200653.441,-29.297,-65.430,-33.203,-28.809
1664200653.445,-33.691,-71.289,-34.180,-22.949
1664200653.449,-20.996,-69.824,-30.273,-50.781
1664200653.453,-8.301,-74.219,-32.715,-30.762
1664200653.457,15.625,-69.336,-36.621,-13.184
1664200653.460,-4.395,-73.730,-25.391,-33.203
1664200653.464,-36.133,-88.379,-15.625,-46.387
1664200653.468,-45.898,-83.496,-12.695,-34.668
1664200653.472,-40.527,-72.266,-14.648,-30.762
1664200653.476,-34.668,-67.871,-22.461,-38.574
1664200653.478,-28.320,-81.055,-22.461,-43.945
1664200653.482,-18.555,-82.520,-20.996,-41.504
1664200653.486,-16.113,-80.078,-12.207,-24.414
1664200653.490,-1.953,-94.727,-4.883,-21.973
1664200653.494,-10.254,-110.352,-15.137,-15.137
1664200653.498,-12.207,-89.844,-17.578,-20.996
1664200653.502,-10.254,-44.922,-9.766,-47.852
1664200653.505,-32.715,-38.574,-6.836,-34.180
1664200653.509,-24.902,-47.852,-5.371,-21.973
1664200653.513,-16.113,-51.270,-6.836,-41.504
1664200653.517,-32.227,-59.570,-10.254,-35.645
1664200653.521,-33.691,-54.688,-9.277,-32.227
1664200653.538,-21.973,-42.480,-11.719,-40.039
1664200653.542,-34.668,-40.039,-11.230,-25.391
1664200653.546,-27.832,-44.922,-7.812,-30.273
1664200653.550,-13.184,-50.781,-11.719,-43.945
1664200653.554,-26.367,-51.270,-9.766,-30.762
1664200653.558,-37.598,-51.270,-6.348,-41.016
1664200653.562,-23.926,-55.176,-12.695,-44.922
1664200653.565,-1.465,-60.547,-12.207,-27.344
1664200653.569,8.301,-59.570,-6.348,-35.156
1664200653.573,-17.578,-47.852,-7.324,-21.973
1664200653.577,-48.828,-52.246,-6.836,-18.555
1664200653.581,-22.949,-64.941,-2.930,-31.738
1664200653.583,-1.953,-66.406,-2.441,-22.461
1664200653.587,-19.043,-67.383,-3.418,-30.273
1664200653.591,-41.016,-74.219,-4.883,-47.852
1664200653.595,-11.719,-73.730,-5.371,-23.438
1664200653.599,1.953,-71.777,-11.719,-15.625
1664200653.603,-26.855,-73.730,-15.137,-23.438
1664200653.607,-37.109,-70.801,-18.066,-22.461
1664200653.610,-26.367,-69.336,-15.137,-30.273
1664200653.614,-11.230,-66.895,-10.742,-23.926
1664200653.618,0.000,-62.012,-13.184,-8.789
1664200653.622,3.418,-66.406,-15.137,-16.113
1664200653.626,-2.441,-70.801,-15.137,-14.648
1664200653.627,-0.977,-72.754,-18.555,-15.625
1664200653.631,-6.348,-70.312,-16.602,-15.137
1664200653.635,-13.184,-63.965,-14.648,-13.184
1664200653.639,-6.836,-61.523,-17.578,-8.301
1664200653.643,1.465,-60.547,-20.996,-35.645
1664200653.647,5.371,-54.688,-25.879,-82.520
1664200653.651,6.836,-55.176,-32.227,-76.172
1664200653.654,-12.207,-56.152,-28.809,-73.730
1664200653.658,-23.926,-53.711,-27.832,-69.824
1664200653.662,-15.137,-59.570,-36.133,-70.801
1664200653.666,-5.371,-58.594,-29.785,-72.754
1664200653.670,-8.789,-53.223,-26.367,-73.242
1664200653.672,-41.016,-54.199,-22.949,-84.961
1664200653.676,-61.035,-49.316,-22.949,-93.750
1664200653.680,-55.664,-50.781,-26.855,-103.516
1664200653.684,-71.289,-70.801,-35.156,-137.695
1664200653.688,-93.750,-72.754,-30.762,-154.785
1664200653.692,-108.887,-64.941,-20.996,-152.344
1664200653.696,-111.328,-64.941,-14.160,-148.926
1664200653.699,-108.398,-66.895,-15.137,-172.363
1664200653.703,-109.375,-70.801,-36.621,-188.477
1664200653.707,-138.184,-80.078,-39.551,-197.266
1664200653.711,-193.359,-99.609,-32.227,-238.281
1664200653.715,-187.988,-105.469,-35.645,-233.398
1664200653.718,-203.125,-113.770,-39.062,-235.840
1664200653.722,-213.379,-124.023,-30.273,-244.141
1664200653.726,-208.496,-141.113,-20.996,-244.629
1664200653.730,-228.516,-155.273,-23.438,-261.719
1664200653.734,-230.469,-156.738,-33.691,-266.602
1664200653.738,-237.793,-159.668,-34.668,-274.902
1664200653.742,-239.746,-174.805,-34.668,-264.160
1664200653.745,-221.191,-188.965,-45.410,-268.066
1664200653.749,-222.656,-179.199,-54.688,-278.809
1664200653.753,-221.680,-168.945,-59.082,-270.020
1664200653.757,-198.242,-193.359,-62.500,-255.371
1664200653.761,-201.660,-226.562,-62.500,-237.305
1664200653.763,-204.590,-231.445,-66.406,-235.352
1664200653.767,-185.547,-229.004,-69.824,-217.773
1664200653.771,-168.457,-218.750,-65.918,-207.031
1664200653.775,-166.504,-203.613,-62.988,-203.613
1664200653.779,-143.555,-193.359,-63.477,-173.828
1664200653.783,-111.816,-186.035,-64.941,-144.043
1664200653.787,-92.285,-180.176,-67.383,-97.656
1664200653.790,-63.477,-165.527,-67.871,-79.590
1664200653.794,-18.066,-159.180,-66.895,-83.008
1664200653.798,5.859,-157.227,-67.871,-46.387
1664200653.802,-5.371,-152.344,-71.777,-26.855
1664200653.806,20.996,-153.809,-65.918,-11.719
1664200653.808,57.617,-149.902,-55.176,14.160
1664200653.812,71.777,-145.020,-60.547,16.113
1664200653.816,94.727,-141.113,-63.477,43.457
1664200653.820,97.168,-137.695,-65.918,59.082
1664200653.824,106.934,-138.672,-69.824,43.945
1664200653.828,122.070,-136.230,-63.965,60.059
1664200653.832,109.375,-131.836,-68.359,75.195
1664200653.835,129.883,-121.094,-64.941,83.008
1664200653.839,139.160,-114.746,-60.059,77.148
1664200653.843,137.207,-113.281,-61.035,76.172
1664200653.847,147.949,-108.887,-58.594,82.031
1664200653.851,126.953,-107.910,-57.129,104.980
1664200653.853,118.652,-107.422,-52.734,120.605
1664200653.857,116.699,-106.445,-54.688,83.496
1664200653.861,110.352,-106.934,-59.570,59.570
1664200653.865,118.164,-105.469,-52.246,80.566
1664200653.869,145.020,-101.074,-49.316,95.215
1664200653.873,168.457,-96.680,-53.711,83.984
1664200653.877,148.438,-103.516,-56.152,83.984
1664200653.880,118.164,-109.375,-55.176,84.473
1664200653.884,141.113,-105.957,-46.387,81.055
1664200653.888,161.621,-104.004,-40.039,80.566
1664200653.892,148.438,-106.934,-44.434,81.055
1664200653.896,142.090,-103.516,-43.457,74.707
1664200653.913,133.301,-94.238,-34.668,89.355
1664200653.917,127.930,-92.285,-32.715,93.262
1664200653.921,117.188,-96.191,-33.691,58.105
1664200653.925,98.633,-105.957,-35.156,47.363
1664200653.929,103.027,-114.258,-35.645,55.664
1664200653.933,104.980,-119.141,-34.180,50.293
1664200653.937,98.633,-115.723,-34.180,48.828
1664200653.940,78.125,-110.352,-33.691,44.434
1664200653.944,68.848,-108.887,-26.367,27.832
1664200653.948,70.312,-109.863,-23.926,23.438
1664200653.952,62.012,-108.398,-27.832,32.227
1664200653.956,53.223,-112.793,-25.391,22.461
1664200653.958,46.387,-115.723,-26.367,4.883
1664200653.962,42.969,-106.445,-21.973,8.301
1664200653.966,44.922,-106.445,-20.020,13.672
1664200653.970,59.570,-112.305,-22.949,27.344
1664200653.974,63.477,-105.957,-25.391,26.855
1664200653.978,49.316,-95.703,-26.855,15.625
1664200653.982,57.129,-90.332,-23.926,16.602
1664200653.985,71.289,-94.238,-21.484,32.227
1664200653.989,51.270,-96.680,-16.602,38.086
1664200653.993,23.926,-97.168,-9.277,23.438
1664200653.997,30.762,-98.633,-8.789,6.836
1664200654.001,32.715,-91.797,-13.184,-2.441
1664200654.003,7.812,-94.238,-16.113,9.766
1664200654.007,28.320,-98.633,-16.113,5.371
1664200654.011,31.250,-94.727,-12.695,5.859
1664200654.015,16.602,-95.215,-14.160,18.066
1664200654.019,22.949,-97.656,-11.719,7.812
1664200654.023,18.555,-101.074,-12.695,-10.254
1664200654.027,38.086,-111.328,-17.578,-11.719
1664200654.030,44.922,-115.234,-17.090,-18.555
1664200654.034,32.227,-109.375,-23.438,-29.785
1664200654.038,42.480,-147.949,-25.391,-24.414
1664200654.042,46.875,-191.895,-24.414,-19.531
1664200654.046,30.273,-194.824,-26.855,-3.906
1664200654.048,23.438,-195.312,-24.902,3.418
1664200654.052,19.043,-201.660,-21.484,-18.066
1664200654.056,38.574,-204.102,-22.949,-26.367
1664200654.060,30.273,-199.219,-30.273,-24.414
1664200654.064,-1.465,-199.707,-30.762,-3.418
1664200654.068,4.395,-208.008,-25.391,0.488
1664200654.072,13.184,-208.496,-24.902,-23.438
1664200654.075,18.555,-201.660,-20.996,-25.391
1664200654.079,2.441,-200.195,-18.066,-13.672
1664200654.083,6.348,-207.520,-19.531,-17.090
1664200654.087,18.555,-215.820,-19.531,-35.645
1664200654.091,-1.953,-216.309,-21.484,-37.109
1664200654.092,7.324,-205.078,-22.949,-23.926,0
1664200654.096,4.395,-199.219,-22.949,-19.531,0
1664200654.100,-18.066,-195.801,-23.438,-19.531,0
1664200654.104,-17.090,-192.871,-26.367,-29.297,0
1664200654.108,-4.883,-189.941,-22.949,-37.109,0
1664200654.112,-1.953,-187.500,-23.926,-36.133,0
1664200654.116,-13.672,-187.988,-30.762,-34.180,0
1664200654.119,-19.043,-180.664,-25.391,-30.762,0
1664200654.123,-18.066,-178.223,-24.902,-24.414,0
1664200654.127,-17.090,-174.316,-27.832,-38.086,0
1664200654.131,-22.949,-166.992,-26.855,-41.016,0
1664200654.135,-34.180,-162.109,-26.367,-42.969,0
1664200654.137,-32.715,-159.668,-27.832,-36.133,0
1664200654.141,-11.719,-152.344,-30.762,-20.996,0
1664200654.145,-27.344,-146.973,-26.367,-28.809,0
1664200654.149,-40.039,-151.367,-18.066,-20.020,0
1664200654.153,-27.344,-146.973,-17.090,-18.555,0
1664200654.157,-29.785,-144.531,-20.020,-35.156,0
1664200654.161,-25.879,-143.555,-27.344,-38.086,0
1664200654.164,-25.879,-133.789,-29.297,-39.062,0
1664200654.168,-11.230,-131.348,-23.926,-29.297,0
1664200654.172,-8.301,-129.883,-26.367,-27.344,0
1664200654.176,-13.184,-122.070,-30.273,-31.250,0
1664200654.180,0.000,-121.582,-31.738,-35.156,0
1664200654.182,-1.953,-126.953,-28.809,-37.598,0
1664200654.186,0.000,-129.883,-28.809,-37.109,0
1664200654.190,9.766,-127.441,-30.762,-24.414,0
1664200654.194,14.648,-123.535,-26.367,-17.090,0
1664200654.198,-3.418,-123.535,-25.879,-26.367,0
1664200654.202,-6.348,-121.582,-21.973,-32.227,0
1664200654.206,2.441,-111.816,-27.344,-34.180,0
1664200654.209,-7.324,-108.887,-29.785,-29.297,0
1664200654.213,-28.809,-117.188,-23.438,-32.715,0
1664200654.217,-34.180,-116.211,-26.855,-49.316,0
1664200654.221,-18.066,-111.328,-29.785,-53.223,0
1664200654.225,-16.602,-109.375,-27.344,-40.039,0
1664200654.228,-34.180,-104.492,-31.250,-37.109,0
1664200654.232,-30.273,-97.168,-27.344,-34.668,0
1664200654.236,-10.742,-93.262,-19.531,-24.414,0
1664200654.240,-3.418,-92.773,-20.508,-12.695,0
1664200654.244,0.977,-94.238,-22.461,-22.949,0
1664200654.248,-1.465,-89.355,-23.438,-40.039,0
1664200654.252,7.812,-80.566,-26.855,-35.156,0
1664200654.255,-4.395,-84.961,-30.273,-38.086,0
1664200654.259,-22.461,-86.914,-25.879,-38.086,0
1664200654.263,-27.832,-82.520,-24.414,-34.180,0
1664200654.267,-10.254,-82.031,-20.020,-31.250,0
1664200654.271,-1.953,-90.820,-17.578,-22.461,0
1664200654.289,-20.020,-85.938,-21.973,-20.996,0
1664200654.293,-40.527,-80.078,-23.926,-36.133,0
1664200654.297,-35.645,-78.613,-23.926,-42.969,0
1664200654.301,-20.508,-78.613,-22.949,-27.344,0
1664200654.305,-22.461,-83.984,-25.391,-20.996,0
1664200654.309,-41.016,-83.008,-25.391,-47.363,0
1664200654.313,-43.457,-81.543,-22.949,-60.059,0
1664200654.316,-28.809,-77.148,-19.531,-38.086,0
1664200654.320,-41.016,-79.102,-19.531,-30.273,0
1664200654.324,-48.828,-77.637,-25.879,-30.762,0
1664200654.328,-33.203,-67.383,-30.273,-41.016,0
1664200654.332,-23.438,-62.988,-22.949,-41.992,0
1664200654.332,-35.156,-63.477,-22.949,-30.273,0
1664200654.336,-36.621,-69.824,-30.762,-47.852,0
1664200654.340,-44.434,-71.289,-26.855,-45.410,0
1664200654.344,-44.434,-66.895,-21.973,-42.969,0
1664200654.348,-40.039,-66.895,-24.414,-49.316,0
1664200654.352,-41.016,-71.289,-21.484,-31.738,0
1664200654.356,-41.992,-72.266,-18.555,-38.574,0
1664200654.359,-44.434,-76.660,-19.531,-39.551,0
1664200654.363,-31.738,-77.637,-16.602,-21.484,0
1664200654.367,-17.578,-72.266,-11.230,-14.160,0
1664200654.371,-49.316,-79.102,-15.137,-34.668,0
1664200654.375,-61.035,-86.426,-20.996,-36.133,0
1664200654.377,-34.180,-85.938,-19.043,-27.832,0
1664200654.381,-30.273,-77.637,-20.996,-43.945,0
1664200654.385,-36.133,-74.219,-27.344,-51.270,0
1664200654.389,-21.973,-82.031,-26.367,-44.434,0
1664200654.393,-8.301,-82.520,-27.832,-37.109,0
1664200654.397,-34.668,-77.637,-28.320,-37.598,0
1664200654.401,-45.410,-89.355,-31.250,-39.551,0
1664200654.404,-58.105,-95.703,-34.180,-43.945,0
1664200654.408,-58.105,-84.961,-31.738,-43.457,0
1664200654.412,-43.457,-88.867,-27.832,-38.086,0
1664200654.416,-47.852,-98.633,-21.484,-40.039,0
1664200654.420,-49.316,-104.492,-27.344,-34.668,0
1664200654.423,-55.176,-107.422,-34.668,-41.992,0
1664200654.427,-41.016,-102.051,-31.250,-49.316,0
1664200654.431,-26.367,-104.492,-31.738,-35.645,0
1664200654.435,-46.387,-107.910,-29.785,-33.691,0
1664200654.439,-38.086,-98.633,-24.414,-24.902,0
1664200654.443,-16.602,-93.750,-26.855,-21.484,0
1664200654.447,-16.602,-97.168,-33.203,-17.578,0
1664200654.450,-15.137,-97.168,-32.227,-26.367,0
1664200654.454,-24.414,-90.820,-25.879,-40.527,0
1664200654.458,-12.207,-101.562,-27.344,-36.621,0
1664200654.462,-6.836,-109.863,-28.320,-25.879,0
1664200654.466,-21.484,-127.441,-25.879,-22.949,0
1664200654.468,-16.602,-223.633,-28.320,-30.762,0
1664200654.472,-13.184,-306.641,-25.879,-31.738,0
1664200654.476,-11.230,-315.918,-22.461,-25.391,0
1664200654.480,-17.090,-314.453,-22.461,-19.531,0
1664200654.484,-15.137,-312.988,-24.414,-36.621,0
1664200654.488,-25.391,-306.641,-25.879,-40.527,0
1664200654.492,-36.621,-298.340,-26.367,-28.809,0
1664200654.495,-18.066,-282.227,-29.785,-40.527,0
1664200654.499,-20.020,-277.832,-28.809,-39.551,0
1664200654.503,-19.043,-279.785,-27.344,-27.832,0
1664200654.507,-17.578,-269.531,-25.879,-22.949,0
1664200654.511,-5.371,-260.254,-28.809,-29.785,0
1664200654.513,2.930,-251.465,-32.227,-26.367,0
1664200654.517,-27.344,-244.629,-30.762,-26.855,0
1664200654.521,-31.250,-237.305,-28.809,-29.785,0
1664200654.525,-29.785,-227.051,-27.344,-46.387,0
1664200654.529,-31.250,-222.168,-31.738,-60.547,0
1664200654.533,-37.109,-216.309,-34.668,-54.688,0
1664200654.537,-27.832,-202.148,-33.203,-50.293,0
1664200654.540,-13.184,-195.312,-34.668,-29.297,0
1664200654.544,-20.020,-191.406,-31.250,-26.855,0
1664200654.548,-10.254,-180.664,-23.926,-39.551,0
1664200654.552,7.324,-174.805,-21.973,-32.227,0
1664200654.556,20.020,-179.199,-22.461,-28.320,0
1664200654.558,16.602,-176.270,-21.973,-15.625,0
1664200654.562,-8.301,-163.574,-27.832,-35.156,0
1664200654.566,-13.184,-147.461,-30.762,-50.781,0
1664200654.570,-17.090,-144.043,-32.715,-28.320,0
1664200654.574,-13.184,-141.602,-35.156,-13.672,0
1664200654.578,-10.742,-134.277,-26.367,-29.785,0
1664200654.582,-13.184,-129.395,-26.855,-50.781,0
1664200654.585,-12.207,-129.883,-30.273,-43.945,0
1664200654.589,-29.297,-130.859,-24.414,-26.855,0
1664200654.593,-28.320,-124.512,-21.484,-31.738,0
1664200654.597,-19.531,-121.582,-19.043,-41.016,0
1664200654.601,-10.742,-129.883,-14.648,-31.250,0
1664200654.602,-12.207,-149.414,-18.555,-28.320,0
1664200654.606,-17.090,-160.645,-19.531,-41.504,0
1664200654.610,-9.277,-156.250,-14.648,-49.316,0
1664200654.614,-23.926,-149.414,-15.625,-49.805,0
1664200654.618,-27.832,-151.367,-19.043,-34.180,0
1664200654.622,-21.484,-150.391,-22.949,-34.180,0
1664200654.626,-38.086,-142.090,-28.809,-43.945,0
1664200654.629,-45.898,-137.207,-24.414,-36.133,0
1664200654.633,-26.367,-132.324,-22.461,-33.691,0
1664200654.637,-1.465,-128.418,-27.344,-36.621,0
1664200654.641,-11.719,-125.000,-30.273,-40.527,0
1664200654.645,-35.156,-121.582,-29.297,-44.434,0
1664200654.667,-20.020,-114.746,-23.926,-34.668,0
1664200654.671,-10.254,-108.398,-19.043,-28.320,0
1664200654.675,-11.230,-105.957,-22.461,-21.973,0
1664200654.679,-11.230,-104.004,-29.297,-40.527,0
1664200654.683,16.113,-95.215,-26.367,-54.688,0
1664200654.687,24.414,-93.262,-19.043,-41.992,0
1664200654.691,-4.395,-97.656,-17.090,-27.344,0
1664200654.694,-10.742,-93.750,-16.113,-22.461,0
1664200654.698,-3.906,-89.844,-15.625,-39.551,0
1664200654.702,-0.977,-84.473,-16.602,-30.762,0
1664200654.706,4.883,-77.148,-9.766,-19.531,0
1664200654.710,5.859,-79.102,-4.883,-22.949,0
1664200654.708,-16.113,-87.891,-11.719,-19.043,0
1664200654.712,-14.648,-85.938,-12.695,-25.879,0
1664200654.716,2.930,-79.102,-12.695,-26.855,0
1664200654.720,-2.441,-73.242,-17.090,-28.320,0
1664200654.724,-4.883,-66.406,-13.184,-31.738,0
1664200654.728,2.930,-61.035,-8.789,-31.250,0
1664200654.732,4.883,-60.059,-13.184,-17.578,0
1664200654.735,4.395,-62.988,-14.160,-9.766,0
1664200654.739,-9.277,-66.406,-19.043,-32.715,0
1664200654.743,-20.996,-67.383,-23.438,-28.320,0
1664200654.747,-2.930,-65.918,-20.508,-8.301,0
1664200654.751,-1.953,-65.918,-25.879,-25.879,0
1664200654.753,-2.441,-67.383,-29.785,-42.480,0
1664200654.757,-1.465,-61.523,-24.902,-27.344,0
1664200654.761,-3.906,-60.547,-22.461,-21.973,0
1664200654.765,2.441,-62.988,-23.438,-31.738,0
1664200654.769,-22.949,-62.988,-27.832,-30.762,0
1664200654.773,-26.367,-62.012,-24.902,-30.273,0
1664200654.777,1.953,-56.152,-20.508,-16.113,0
1664200654.780,9.766,-56.641,-21.484,-24.414,0
1664200654.784,1.465,-55.664,-25.879,-46.387,0
1664200654.788,-16.113,-56.641,-26.367,-44.434,0
1664200654.792,-6.836,-55.176,-27.344,-49.316,0
1664200654.796,5.859,-55.176,-23.926,-41.992,0
1664200654.798,0.000,-71.777,-22.949,-27.344,0
1664200654.802,-12.695,-100.098,-27.832,-46.875,0
1664200654.806,-17.090,-152.832,-24.902,-56.152,0
1664200654.810,-5.859,-171.875,-26.367,-43.457,0
1664200654.814,17.578,-159.668,-26.855,-31.738,0
1664200654.818,27.344,-154.785,-19.043,-20.020,0
1664200654.822,10.254,-161.621,-18.555,-27.344,0
1664200654.825,14.160,-157.715,-18.066,-35.645,0
1664200654.829,5.859,-146.484,-20.508,-39.062,0
1664200654.833,-17.578,-147.949,-20.996,-47.363,0
1664200654.837,-10.254,-142.578,-19.043,-48.340,0
1664200654.841,2.930,-131.836,-20.996,-38.574,0
1664200654.844,18.555,-124.512,-20.020,-28.320,0
1664200654.848,23.438,-118.164,-23.926,-41.504,0
1664200654.852,12.207,-116.211,-31.738,-49.805,0
1664200654.856,23.438,-111.328,-32.715,-33.691,0
1664200654.860,1.953,-104.004,-29.297,-31.738,0
1664200654.864,-8.301,-103.027,-23.438,-36.133,0
1664200654.868,9.277,-105.957,-22.461,-29.785,0
1664200654.871,-1.465,-107.422,-25.391,-37.598,0
1664200654.875,-11.230,-105.469,-22.461,-44.434,0
1664200654.879,-11.230,-102.051,-15.137,-23.926,0
1664200654.883,1.465,-100.098,-15.625,-20.996,0
1664200654.887,-0.977,-98.633,-20.508,-33.203,0
1664200654.888,-26.855,-93.750,-17.578,-38.574,0
1664200654.892,-26.367,-94.238,-18.066,-40.527,0
1664200654.896,-7.324,-89.844,-19.043,-37.109,0
1664200654.900,-8.301,-84.473,-21.484,-24.902,0
1664200654.904,-15.625,-83.008,-24.414,-25.879,0
1664200654.908,-0.977,-79.102,-24.902,-32.227,0
1664200654.912,-5.371,-77.637,-21.973,-22.949,0
1664200654.915,-19.043,-72.754,-24.414,-27.344,0
1664200654.919,-12.695,-70.312,-22.949,-30.762,0
1664200654.923,-2.441,-71.777,-21.484,-24.902,0
1664200654.927,10.742,-75.195,-31.250,-35.645,0
1664200654.931,1.465,-76.172,-32.227,-31.738,0
1664200654.933,-8.301,-72.266,-22.949,-20.020,0
1664200654.937,-8.789,-74.707,-23.926,-37.598,0
1664200654.941,-12.207,-76.172,-23.926,-46.387,0
1664200654.945,-28.809,-71.777,-24.414,-41.504,0
1664200654.949,-42.969,-72.266,-30.273,-51.270,0
1664200654.953,-29.297,-73.730,-26.367,-34.668,0
1664200654.957,-16.113,-72.754,-22.461,-17.090,0
1664200654.960,-15.137,-73.730,-22.949,-35.645,0
1664200654.964,-24.414,-69.336,-20.996,-46.387,0
1664200654.968,-40.039,-64.453,-21.484,-50.293,0
1664200654.972,-37.109,-68.359,-22.461,-47.363,0
1664200654.976,-30.762,-68.359,-23.438,-38.574,0
1664200654.978,-39.062,-67.383,-29.785,-39.062,0
1664200654.982,-35.645,-64.941,-29.785,-40.527,0
1664200654.986,-12.207,-58.594,-28.809,-33.203,0
1664200654.990,-7.324,-57.129,-24.902,-36.133,0
1664200654.994,-23.438,-57.617,-20.508,-45.410,0
1664200654.998,-2.441,-57.617,-21.484,-45.410,0
1664200655.002,4.883,-57.617,-23.438,-39.551,0
1664200655.005,-11.230,-63.477,-26.855,-23.438,0
1664200655.009,16.113,-69.336,-23.438,-0.488,0
1664200655.013,20.508,-54.199,-20.508,-13.672,0
1664200655.017,-16.602,-47.363,-33.203,-53.711,0
1664200655.021,-10.254,-49.805,-38.086,-63.477,0
1664200655.038,-1.953,-46.387,-41.016,-55.664,0
1664200655.042,-20.020,-45.898,-43.457,-52.734,0
1664200655.046,-12.207,-38.574,-40.039,-51.270,0
1664200655.050,-4.883,-38.574,-40.527,-45.410,0
1664200655.054,-17.578,-42.969,-30.762,-42.969,0
1664200655.058,-34.668,-43.945,-28.809,-54.199,0
1664200655.062,-38.086,-45.410,-39.062,-52.246,0
1664200655.065,-15.137,-44.434,-36.621,-34.180,0
1664200655.069,15.137,-39.551,-30.762,-22.949,0
1664200655.073,19.531,-36.621,-30.762,-23.438,0
1664200655.077,-0.977,-35.645,-28.809,-33.691,0
1664200655.081,-2.930,-37.598,-26.855,-39.062,0
1664200655.083,5.859,-42.480,-33.203,-44.434,0
1664200655.087,-6.348,-45.410,-32.227,-52.734,0
1664200655.091,-12.695,-41.504,-27.832,-50.293,0
1664200655.095,8.301,-39.062,-27.344,-46.387,0
1664200655.099,-10.742,-41.992,-29.297,-44.434,0
1664200655.103,-24.902,-42.480,-32.227,-40.039,0
1664200655.107,-25.391,-40.527,-32.715,-32.715,0
1664200655.110,-16.113,-35.156,-26.855,-22.949,0
1664200655.114,5.371,-25.879,-26.367,-20.996,0
1664200655.118,-4.883,-30.273,-28.809,-39.062,0
1664200655.122,-11.230,-37.109,-23.926,-41.016,0
1664200655.126,16.602,-31.738,-23.926,-35.645,0
1664200655.127,17.578,-29.785,-19.531,-18.066,0
1664200655.131,-8.789,-32.715,-15.625,-13.672,0
1664200655.135,-27.344,-30.273,-16.113,-29.297,0
1664200655.139,-24.902,-30.273,-9.277,-32.227,0
1664200655.143,1.465,-35.645,-6.348,-36.133,0
1664200655.147,8.789,-37.598,-9.766,-41.016,0
1664200655.151,2.930,-38.086,-16.602,-44.922,0
1664200655.154,-0.977,-38.574,-15.137,-24.414,0
1664200655.158,1.953,-45.410,-10.254,-11.719,0
1664200655.162,-1.465,-43.945,-15.137,-35.156,0
1664200655.166,8.301,-38.086,-22.461,-42.480,0
1664200655.170,-12.695,-38.574,-26.855,-33.203,0
1664200655.172,-35.645,-38.574,-24.414,-32.715,0
1664200655.176,-20.020,-40.527,-26.855,-42.969,0
1664200655.180,-16.602,-38.086,-27.832,-46.387,0
1664200655.184,-10.254,-33.691,-25.391,-37.598,0
1664200655.188,-18.555,-35.156,-27.344,-39.062,0
1664200655.192,-26.855,-38.086,-25.879,-40.527,0
1664200655.196,-31.250,-44.922,-22.461,-32.227,0
1664200655.199,-38.574,-42.969,-20.020,-30.762,0
1664200655.203,-36.621,-38.574,-22.461,-46.875,0
1664200655.207,-25.391,-41.992,-24.902,-43.457,0
1664200655.211,-18.555,-38.574,-22.461,-20.996,0
1664200655.215,-17.090,-42.480,-21.484,-33.203,0
1664200655.217,-33.691,-46.875,-27.832,-41.016,0
1664200655.221,-40.527,-40.527,-26.367,-31.250,0
1664200655.225,-20.508,-37.598,-22.949,-23.926,0
1664200655.229,-15.625,-44.434,-27.344,-28.320,0
1664200655.233,-21.484,-51.758,-30.273,-36.133,0
1664200655.237,-13.184,-51.270,-23.438,-35.645,0
1664200655.241,-17.090,-51.270,-19.531,-24.414,0
1664200655.244,-20.996,-46.387,-15.625,-22.461,0
1664200655.248,-31.250,-42.969,-10.742,-40.527,0
1664200655.252,-35.645,-41.504,-9.766,-34.180,0
1664200655.256,-7.324,-34.668,-9.766,-37.598,0
1664200655.260,-6.836,-31.738,-8.789,-48.340,0
1664200655.264,-44.434,-33.691,-10.742,-41.016,0
1664200655.268,-55.664,-32.715,-6.348,-52.734,0
1664200655.272,-53.223,-33.691,-0.488,-68.848,0
1664200655.276,-60.059,-35.156,-6.836,-62.500,0
1664200655.280,-84.473,-49.805,-19.043,-91.797,0
1664200655.284,-105.469,-46.387,-19.531,-120.117,0
1664200655.288,-109.375,-36.621,-11.230,-124.023,0
1664200655.291,-109.375,-31.738,-10.742,-132.324,0
1664200655.295,-139.648,-38.574,-13.184,-155.762,0
1664200655.299,-147.461,-54.688,-10.742,-174.316,0
1664200655.303,-161.133,-53.711,-14.648,-199.707,0
1664200655.307,-191.406,-63.477,-21.973,-247.070,0
1664200655.309,-193.359,-87.402,-6.836,-249.512,0
1664200655.313,-222.656,-112.793,5.371,-244.629,0
1664200655.317,-264.648,-134.766,-5.371,-284.180,0
1664200655.321,-263.672,-155.762,-12.207,-293.945,0
1664200655.325,-257.324,-162.598,-18.066,-297.363,0
1664200655.329,-265.625,-156.738,-14.648,-300.781,0
1664200655.333,-271.973,-160.645,-16.113,-307.129,0
1664200655.336,-277.344,-161.621,-20.508,-309.082,0
1664200655.340,-253.418,-144.043,-20.020,-270.020,0
1664200655.344,-225.586,-134.766,-17.090,-247.070,0
1664200655.348,-227.539,-135.742,-19.531,-251.953,0
1664200655.352,-197.266,-120.117,-27.344,-246.582,0
1664200655.354,-155.762,-110.352,-24.902,-209.473,0
1664200655.358,-143.555,-113.770,-19.531,-189.941,0
1664200655.362,-128.906,-107.910,-26.367,-180.664,0
1664200655.366,-95.703,-102.539,-31.738,-146.973,0
1664200655.370,-70.801,-107.422,-29.785,-114.746,0
1664200655.374,-58.105,-108.398,-28.320,-88.379,0
1664200655.378,-37.598,-105.469,-26.367,-58.594,0
1664200655.381,-25.391,-104.492,-21.973,-42.480,0
1664200655.385,-4.883,-96.680,-23.926,-21.484,0
1664200655.389,29.785,-89.355,-26.367,-1.953,0
1664200655.393,51.758,-94.238,-25.879,10.254,0
1664200655.397,46.875,-95.215,-26.367,26.855,0
1664200655.414,63.965,-92.773,-22.949,48.340,0
1664200655.418,102.051,-93.262,-25.879,63.965,0
1664200655.422,101.562,-89.844,-30.273,61.523,0
1664200655.426,71.289,-92.285,-30.273,56.152,0
1664200655.430,83.496,-96.680,-29.785,70.312,0
1664200655.434,103.516,-92.285,-30.762,83.008,0
1664200655.438,106.934,-84.961,-30.273,90.820,0
1664200655.441,99.121,-81.543,-31.250,77.637,0
1664200655.445,94.238,-76.660,-35.156,54.199,0
1664200655.449,121.094,-70.801,-38.086,66.406,0
1664200655.453,120.117,-75.195,-39.551,73.730,0
1664200655.457,111.816,-75.195,-37.109,63.477,0
1664200655.459,104.004,-69.824,-33.203,55.664,0
1664200655.463,94.727,-69.336,-30.762,70.312,0
1664200655.467,102.051,-73.242,-32.715,74.707,0
1664200655.471,93.750,-74.707,-35.645,60.547,0
1664200655.475,76.660,-67.871,-33.203,50.781,0
1664200655.479,78.125,-72.266,-29.785,56.641,0
1664200655.483,90.820,-86.426,-31.738,64.453,0
1664200655.486,76.172,-80.078,-35.645,65.918,0
1664200655.490,64.453,-70.312,-41.016,51.270,0
1664200655.494,70.312,-62.988,-38.574,41.016,0
1664200655.498,90.332,-59.082,-38.574,50.781,0
1664200655.502,94.238,-64.941,-41.016,47.852,0
1664200655.502,73.730,-65.918,-39.062,28.320,0
1664200655.506,62.012,-63.477,-38.574,36.133,0
1664200655.510,67.871,-57.129,-33.203,51.270,0
1664200655.514,71.777,-46.387,-29.297,48.340,0
1664200655.518,61.523,-39.062,-26.855,46.387,0
1664200655.522,51.270,-44.434,-26.367,41.992,0
1664200655.526,69.824,-51.270,-26.367,47.852,0
1664200655.529,99.609,-54.688,-23.438,72.754,0
1664200655.533,94.238,-51.270,-20.996,62.500,0
1664200655.537,37.598,-42.480,-31.250,3.906,0
1664200655.541,-2.441,-44.922,-43.945,-26.367,0
1664200655.545,7.812,-48.828,-40.527,-26.855,0
1664200655.547,12.695,-50.781,-38.086,-17.578,0
1664200655.551,20.508,-50.781,-37.109,-8.301,0
1664200655.555,14.648,-48.340,-43.457,-23.438,0
1664200655.559,13.184,-44.922,-41.992,-18.066,0
1664200655.563,25.391,-43.945,-35.156,-12.207,0
1664200655.567,8.789,-49.805,-39.551,-23.438,0
1664200655.571,2.930,-52.246,-41.016,-25.391,0
1664200655.574,14.648,-54.199,-34.180,-16.113,0
1664200655.578,39.062,-55.664,-29.785,-0.977,0
1664200655.582,32.715,-55.664,-30.273,2.441,0
1664200655.586,16.113,-56.641,-35.156,-9.277,0
1664200655.590,21.973,-52.246,-40.039,-25.391,0
1664200655.592,23.438,-47.852,-33.203,-19.531,0
1664200655.596,29.297,-47.852,-28.809,-10.742,0
1664200655.600,19.531,-46.387,-27.344,-13.184,0
1664200655.604,23.926,-48.340,-23.926,-14.160,0
1664200655.608,35.156,-41.992,-24.902,-17.090,0
1664200655.612,13.184,-36.621,-22.949,-17.090,0
1664200655.616,-6.348,-48.828,-28.809,-20.996,0
1664200655.619,6.836,-51.270,-30.762,-20.996,0
1664200655.623,29.785,-40.527,-24.902,-21.973,0
1664200655.627,23.438,-41.504,-28.320,-27.832,0
1664200655.631,7.812,-48.340,-32.227,-20.508,0
1664200655.635,14.648,-48.828,-30.762,-13.672,0
1664200655.637,21.973,-42.969,-25.879,-28.809,0
1664200655.641,16.602,-44.922,-24.414,-28.809,0
1664200655.645,23.438,-44.434,-27.344,-23.438,0
1664200655.649,4.883,-38.574,-26.367,-24.414,0
1664200655.653,-3.906,-40.039,-23.926,-32.715,0
1664200655.657,23.438,-37.598,-22.949,-33.203,0
1664200655.661,33.203,-33.691,-24.902,-24.902,0
1664200655.664,-11.719,-39.062,-25.391,-38.574,0
1664200655.668,-14.648,-43.945,-18.555,-32.227,0
1664200655.672,10.254,-46.875,-17.578,-26.855,0
1664200655.676,14.160,-41.016,-19.531,-30.273,0
1664200655.680,-0.977,-39.062,-18.066,-31.738,0
1664200655.682,-7.812,-48.340,-16.113,-27.344,0
1664200655.686,1.953,-49.316,-16.602,-18.066,0
1664200655.690,-7.324,-47.363,-16.602,-21.973,0
1664200655.694,-10.742,-46.387,-17.090,-30.273,0
1664200655.698,11.230,-44.922,-20.020,-21.484,0
1664200655.702,1.465,-44.434,-18.555,-13.672,0
1664200655.706,-18.555,-44.434,-22.461,-18.066,0
1664200655.709,1.465,-41.016,-22.949,-33.203,0
1664200655.713,19.043,-33.691,-21.973,-30.273,0
1664200655.717,12.695,-35.645,-17.578,-16.113,0
1664200655.721,4.395,-42.480,-13.184,-18.066,0
1664200655.725,-20.996,-41.016,-16.602,-27.832,0
1664200655.727,-23.926,-39.062,-16.602,-15.625,0
1664200655.731,-3.418,-33.203,-16.602,-8.789,0
1664200655.735,0.977,-29.785,-12.207,-24.414,90
1664200655.739,-15.137,-32.715,-6.836,-39.062,0
1664200655.743,-22.949,-35.645,-8.301,-40.039,0
1664200655.747,-20.020,-36.133,-11.230,-29.297,0
1664200655.751,-16.602,-38.086,-13.672,-23.926,0
1664200655.754,-18.066,-42.969,-14.648,-32.227,0
1664200655.758,-29.785,-41.992,-15.137,-29.785,0
1664200655.762,-20.508,-35.645,-11.230,-35.156,0
1664200655.766,-19.043,-37.598,-10.254,-29.297,0
1664200655.770,-18.555,-42.480,-11.719,-13.672,0
1664200655.787,-5.371,-40.527,-16.113,-36.133,0
1664200655.791,-36.133,-41.992,-18.555,-50.293,0
1664200655.795,-42.480,-46.387,-14.648,-37.109,0
1664200655.799,-13.184,-48.828,-15.137,-30.762,0
1664200655.803,-20.508,-44.922,-19.043,-32.715,0
1664200655.807,-50.781,-49.805,-19.531,-37.109,0
1664200655.811,-44.922,-52.734,-16.113,-28.320,0
1664200655.814,-28.320,-45.410,-13.184,-17.578,0
1664200655.818,-31.738,-44.922,-13.672,-17.578,0
1664200655.822,-30.273,-52.734,-12.207,-26.367,0
1664200655.826,-39.551,-52.246,-8.789,-46.387,0
1664200655.830,-40.527,-41.992,-0.977,-55.176,0
1664200655.832,-33.691,-39.551,5.371,-28.809,0
1664200655.836,-25.391,-41.504,0.488,-25.879,0
1664200655.840,-35.645,-41.992,-8.789,-41.992,0
1664200655.844,-39.062,-44.922,-14.648,-44.434,0
1664200655.848,-25.391,-43.457,-10.742,-38.086,0
1664200655.852,-22.949,-45.410,-12.207,-38.574,0
1664200655.856,-26.855,-45.898,-19.043,-45.898,0
1664200655.859,-20.020,-42.480,-17.090,-41.016,0
1664200655.863,-2.441,-44.434,-12.207,-33.203,0
1664200655.867,-20.996,-42.969,-16.113,-33.691,0
1664200655.871,-42.480,-37.598,-17.578,-38.574,0
1664200655.875,-22.461,-36.621,-13.184,-38.086,0
1664200655.877,4.883,-38.574,-12.695,-33.691,0
1664200655.881,-8.789,-37.109,-15.137,-19.531,0
1664200655.885,-25.879,-36.621,-20.996,-22.949,0
1664200655.889,-15.137,-36.133,-18.555,-37.598,0
1664200655.893,-0.977,-36.621,-18.066,-32.227,0
1664200655.897,7.324,-36.621,-22.949,-33.203,0
1664200655.901,19.531,-41.504,-20.020,-36.621,0
1664200655.904,-0.488,-44.434,-19.531,-32.715,0
1664200655.908,-10.254,-35.645,-19.531,-29.297,0
1664200655.912,-0.977,-36.133,-25.879,-30.273,0
1664200655.916,8.301,-40.039,-28.809,-32.227,0
1664200655.920,10.742,-38.574,-23.926,-36.621,0
1664200655.921,-1.465,-34.668,-18.555,-20.020,0
1664200655.925,-13.184,-28.809,-17.090,-7.812,0
1664200655.929,-6.348,-28.809,-19.531,-41.016,0
1664200655.933,-8.301,-32.227,-21.973,-42.480,0
1664200655.937,-18.555,-37.109,-26.367,-24.414,0
1664200655.941,-20.996,-41.992,-29.785,-52.734,0
1664200655.945,-10.254,-38.086,-27.832,-50.781,0
1664200655.948,-3.906,-37.109,-25.879,-33.691,0
1664200655.952,-37.109,-37.598,-24.414,-42.969,0
1664200655.956,-35.645,-36.621,-22.949,-43.945,0
1664200655.960,-20.508,-34.668,-19.043,-41.504,0
1664200655.964,-34.180,-35.645,-19.531,-43.457,0
1664200655.967,-28.320,-38.574,-23.438,-44.922,0
1664200655.971,-10.742,-41.016,-18.066,-37.598,0
1664200655.975,-20.020,-40.527,-20.020,-47.852,0
1664200655.979,-38.086,-38.086,-28.809,-44.434,0
1664200655.983,0.977,-37.598,-25.391,-16.602,0
1664200655.987,37.598,-30.762,-18.555,-0.488,0
1664200655.991,-9.766,-34.668,-20.020,-28.320,0
1664200655.994,-58.594,-41.992,-26.855,-57.129,0
1664200655.998,-39.551,-38.574,-28.809,-32.715,0
1664200656.002,-16.602,-38.574,-23.926,-11.230,0
1664200656.006,-3.906,-41.016,-13.672,-4.395,0
1664200656.010,-2.441,-43.945,-15.137,-6.348,0
1664200656.013,-8.789,-38.574,-22.461,-8.301,0
1664200656.017,-5.859,-32.227,-18.555,-16.602,0
1664200656.021,0.488,-37.109,-20.020,-25.879,0
1664200656.025,-2.930,-41.016,-24.902,-19.531,0
1664200656.029,4.395,-34.668,-24.414,-3.418,0
1664200656.033,8.789,-36.133,-19.531,1.953,0
1664200656.037,2.441,-36.621,-14.160,-5.371,0
1664200656.040,5.859,-33.203,-13.184,-12.695,0
1664200656.044,15.625,-39.551,-18.066,-10.742,0
1664200656.048,15.625,-42.480,-20.020,-8.301,0
1664200656.052,25.391,-36.133,-17.578,-8.789,0
1664200656.056,28.320,-36.133,-18.555,-1.465,0
1664200656.058,-7.324,-41.016,-19.531,-8.301,0
1664200656.062,-11.230,-41.504,-20.996,-24.414,0
1664200656.066,8.301,-39.062,-18.555,-27.344,0
1664200656.070,6.836,-39.062,-12.695,-21.484,0
1664200656.074,4.395,-39.062,-10.742,-9.766,0
1664200656.078,12.207,-37.109,-8.789,-11.230,0
1664200656.082,-3.906,-42.480,-10.742,-27.344,0
1664200656.085,-3.906,-47.852,-16.602,-12.695,0
1664200656.089,-6.348,-39.551,-12.207,-2.930,0
1664200656.093,-12.207,-36.621,-10.254,-20.508,0
1664200656.097,0.977,-39.062,-12.695,-28.320,0
1664200656.101,15.625,-40.527,-16.602,-18.066,0
1664200656.103,9.766,-41.992,-18.066,-17.090,0
1664200656.107,2.441,-38.086,-15.137,-20.996,0
1664200656.111,19.531,-34.180,-16.602,-5.371,0
1664200656.115,15.137,-33.203,-18.555,-17.090,0
1664200656.119,-4.883,-40.039,-17.578,-35.156,0
1664200656.123,-0.488,-38.574,-15.625,-29.297,0
1664200656.127,13.184,-30.762,-16.602,-30.273,0
1664200656.130,10.742,-28.809,-17.578,-27.344,0
1664200656.134,13.672,-24.902,-15.625,-16.113,0
1664200656.138,20.020,-26.367,-15.625,-20.508,0
1664200656.142,18.066,-26.367,-21.973,-22.949,0
1664200656.146,23.438,-25.391,-28.320,-20.020,0
1664200656.163,36.621,-31.738,-27.344,-17.578,0
1664200656.167,31.250,-36.621,-20.020,-23.438,0
1664200656.171,8.789,-37.109,-15.625,-36.621,0
1664200656.175,4.883,-38.574,-19.043,-36.133,0
1664200656.179,10.742,-40.039,-20.508,-33.203,0
1664200656.183,23.926,-39.551,-11.719,-22.949,0
1664200656.187,16.113,-34.180,-9.277,-11.230,0
1664200656.190,0.000,-32.715,-18.555,-15.625,0
1664200656.194,1.953,-33.691,-12.207,-29.297,0
1664200656.198,5.859,-38.086,-8.789,-27.832,0
1664200656.202,0.488,-36.621,-15.137,-30.273,0
1664200656.206,-17.090,-35.156,-20.996,-31.738,0
1664200656.207,-3.906,-38.574,-21.973,-30.762,0
1664200656.211,4.395,-34.668,-14.160,-37.109,0
1664200656.215,-13.672,-37.109,-15.625,-26.855,0
1664200656.219,-15.137,-38.574,-17.090,-26.367,0
1664200656.223,-18.555,-41.016,-19.043,-36.133,0
1664200656.227,3.418,-40.039,-22.461,-38.574,0
1664200656.231,36.133,-38.574,-20.508,-4.395,0
1664200656.234,38.574,-38.574,-13.672,22.461,0
1664200656.238,-10.742,-31.738,-22.949,-32.227,0
1664200656.242,-6.348,-34.180,-36.621,-50.293,0
1664200656.246,32.227,-38.574,-32.227,-12.207,0
1664200656.250,21.484,-37.109,-33.203,-1.953,0
1664200656.252,28.809,-35.645,-33.203,-7.324,0
1664200656.256,29.785,-35.645,-24.902,-18.066,0
1664200656.260,24.902,-35.156,-20.020,-15.625,0
1664200656.264,25.391,-31.250,-24.902,-9.277,0
1664200656.268,16.113,-29.297,-31.250,-17.090,0
1664200656.272,27.832,-33.691,-29.785,-1.465,0
1664200656.276,44.922,-35.645,-24.414,6.836,0
1664200656.279,46.875,-30.762,-23.438,-19.531,0
1664200656.283,26.367,-30.762,-30.273,-31.250,0
1664200656.287,15.137,-21.484,-28.809,-13.672,0
1664200656.291,36.133,-4.883,-16.602,-3.906,0
1664200656.295,47.852,-3.906,-8.301,-4.395,0
1664200656.298,27.344,-4.395,-11.230,-8.301,0
1664200656.302,-4.395,-7.812,-21.484,-16.602,0
1664200656.306,13.184,-14.160,-18.555,-22.461,0
1664200656.310,33.691,-10.742,-15.137,-29.785,0
1664200656.314,38.574,-9.766,-20.020,-35.645,0
1664200656.318,28.809,-11.719,-22.461,-35.156,0
1664200656.322,7.324,-12.695,-17.090,-32.227,0
1664200656.325,4.883,-12.207,-15.137,-21.973,0
1664200656.329,0.977,-19.043,-20.508,-25.879,0
1664200656.333,3.418,-20.996,-25.391,-20.996,0
1664200656.337,12.695,-19.043,-22.461,-20.996,0
1664200656.341,0.977,-21.484,-19.531,-38.086,0
1664200656.343,-4.395,-18.066,-19.531,-20.508,0
1664200656.347,-0.488,-20.020,-20.020,-20.508,0
1664200656.351,-0.977,-22.949,-26.855,-40.527,0
1664200656.355,19.043,-19.531,-28.809,-39.551,0
1664200656.359,13.184,-21.484,-24.414,-36.621,0
1664200656.363,-2.441,-27.832,-20.020,-28.809,0
1664200656.367,-9.277,-34.180,-20.508,-34.180,0
1664200656.370,-13.672,-35.645,-21.973,-40.039,0
1664200656.374,-11.230,-32.715,-20.020,-30.273,0
1664200656.378,-7.324,-31.250,-19.531,-24.414,0
1664200656.382,-7.324,-30.762,-24.902,-39.551,0
1664200656.386,-11.230,-28.320,-26.367,-47.363,0
1664200656.388,3.418,-27.344,-25.879,-40.039,0
1664200656.392,7.324,-32.227,-29.785,-47.363,0
1664200656.396,-18.555,-37.109,-31.250,-46.875,0
1664200656.400,-26.855,-33.691,-25.879,-31.738,0
1664200656.404,-10.742,-26.367,-23.926,-38.574,0
1664200656.408,0.977,-21.484,-27.344,-52.734,0
1664200656.412,-3.418,-25.391,-30.762,-49.316,0
1664200656.415,-20.996,-31.250,-31.250,-51.270,0
1664200656.419,-7.324,-27.832,-32.715,-50.781,0
1664200656.423,13.184,-25.391,-23.926,-38.574,0
1664200656.427,26.367,-26.367,-17.090,-17.090,0
1664200656.431,5.371,-25.391,-25.391,-30.273,0
1664200656.433,-26.367,-24.902,-26.367,-44.434,0
1664200656.437,-14.648,-25.391,-19.531,-31.250,0
1664200656.441,-8.301,-25.391,-14.648,-25.391,0
1664200656.445,-15.137,-28.320,-15.625,-23.926,0
1664200656.449,-8.301,-39.551,-14.648,-33.203,0
1664200656.453,5.371,-44.922,-14.160,-26.855,0
1664200656.457,5.859,-42.969,-19.043,-22.461,0
1664200656.460,-0.488,-45.898,-21.973,-37.109,0
1664200656.464,-3.418,-45.410,-22.949,-40.527,0
1664200656.468,11.230,-39.551,-21.973,-43.457,0
1664200656.472,17.090,-41.016,-24.414,-46.387,0
1664200656.476,6.836,-43.457,-24.902,-32.715,0
1664200656.478,-7.324,-44.922,-22.461,-34.180,0
1664200656.482,-15.137,-45.410,-26.855,-35.156,0
1664200656.486,-0.488,-41.992,-30.273,-34.180,0
1664200656.490,0.000,-44.434,-28.320,-37.598,0
1664200656.494,2.930,-45.410,-24.414,-28.809,0
1664200656.498,28.809,-41.016,-21.973,-33.691,0
1664200656.502,6.836,-41.504,-24.902,-37.109,0
1664200656.505,-23.926,-41.992,-22.949,-39.551,0
1664200656.509,-33.203,-34.180,-21.973,-48.340,0
1664200656.513,-40.527,-34.180,-25.879,-43.457,0
1664200656.517,-20.996,-39.062,-22.949,-36.133,0
1664200656.521,1.465,-38.086,-21.484,-25.879,0
1664200656.538,-18.066,-40.039,-24.902,-33.691,0
1664200656.542,-8.301,-42.969,-27.344,-23.438,0
1664200656.546,-17.578,-37.109,-26.855,-9.766,0
1664200656.550,-38.086,-37.598,-28.809,-32.227,0
1664200656.554,-2.441,-44.922,-30.273,-50.781,0
1664200656.558,-14.160,-40.527,-28.809,-52.246,0
1664200656.562,-27.832,-41.016,-27.832,-52.734,0
1664200656.565,-18.555,-42.969,-26.855,-51.270,0
1664200656.569,-17.090,-41.016,-27.832,-39.551,0
1664200656.573,2.441,-39.551,-31.738,-17.090,0
1664200656.577,-1.465,-32.227,-29.785,-21.973,0
1664200656.581,-38.086,-27.832,-26.367,-73.242,0
1664200656.582,-62.012,-37.598,-30.273,-94.238,0
1664200656.586,-60.059,-47.363,-30.273,-70.801,0
1664200656.590,-64.941,-40.039,-26.855,-69.336,0
1664200656.594,-71.777,-36.133,-30.762,-81.543,0
1664200656.598,-70.801,-43.457,-36.621,-85.938,0
1664200656.602,-74.219,-48.828,-40.039,-106.445,0
1664200656.606,-69.336,-45.410,-41.016,-107.422,0
1664200656.609,-71.777,-40.039,-41.992,-88.379,0
1664200656.613,-69.824,-40.527,-39.551,-92.285,0
1664200656.617,-65.918,-41.504,-43.945,-96.680,0
1664200656.621,-62.988,-49.316,-49.316,-85.938,0
1664200656.625,-52.246,-48.340,-40.039,-72.266,0
1664200656.627,-45.410,-41.992,-36.621,-48.828,0
1664200656.631,-24.414,-41.504,-40.039,-40.527,0
1664200656.635,-21.973,-41.504,-39.551,-48.828,0
1664200656.639,-49.316,-38.574,-36.133,-53.711,0
1664200656.643,-45.410,-38.086,-38.574,-54.199,0
1664200656.647,-16.602,-37.598,-38.086,-42.480,0
1664200656.651,-14.648,-37.598,-41.504,-45.410,0
1664200656.654,-59.570,-43.457,-44.922,-62.012,0
1664200656.658,-58.105,-34.180,-39.551,-44.434,0
1664200656.662,-36.621,-35.156,-40.039,-23.438,0
1664200656.666,-32.227,-46.875,-37.598,-29.785,0
1664200656.670,-35.645,-43.457,-33.691,-51.758,0
1664200656.672,-33.203,-39.062,-28.320,-56.641,0
1664200656.676,-16.113,-34.668,-23.438,-38.574,0
1664200656.680,-8.789,-31.250,-26.855,-37.109,0
1664200656.684,-23.926,-32.227,-33.691,-58.594,0
1664200656.688,-45.898,-35.156,-36.133,-76.172,0
1664200656.692,-47.852,-31.738,-35.156,-64.941,0
1664200656.696,-37.109,-35.645,-39.062,-50.293,0
1664200656.699,-49.805,-38.574,-41.504,-56.152,0
1664200656.703,-55.664,-29.785,-35.156,-46.875,0
1664200656.707,-40.039,-37.598,-31.250,-41.992,0
1664200656.711,-40.039,-38.086,-31.738,-45.898,0
1664200656.715,-35.156,-29.785,-27.344,-26.367,0
1664200656.721,-12.695,-37.598,-25.391,-26.367,0
1664200656.725,-19.043,-40.039,-24.902,-51.270,0
1664200656.729,-31.250,-33.691,-22.461,-49.316,0
1664200656.733,-35.156,-35.156,-25.879,-33.203,71
1664200656.737,-37.109,-37.598,-24.902,-24.414,0
1664200656.741,-18.555,-34.668,-17.578,-34.180,0
1664200656.745,-18.555,-35.645,-15.625,-49.805,0
1664200656.748,-24.902,-32.227,-20.508,-45.898,0
1664200656.752,-37.109,-31.738,-30.273,-31.738,0
1664200656.756,-38.086,-36.133,-25.879,-35.156,0
1664200656.760,-18.555,-35.156,-16.602,-53.711,0
1664200656.764,-13.672,-39.062,-19.531,-49.805,0
1664200656.777,-21.973,-40.527,-19.043,-25.391,0
1664200656.781,-34.668,-39.062,-19.531,-31.250,0
1664200656.785,-22.461,-41.992,-22.949,-38.574,0
1664200656.789,-23.438,-43.457,-27.832,-24.414,0
1664200656.793,-37.109,-44.434,-29.297,-41.992,0
1664200656.797,-40.039,-45.898,-28.809,-46.875,0
1664200656.801,-16.602,-38.086,-26.855,-33.691,0
1664200656.804,10.742,-24.902,-23.438,-37.109,0
1664200656.808,7.324,-31.250,-26.367,-49.316,0
1664200656.812,-5.371,-38.086,-31.738,-37.598,0
1664200656.816,2.930,-33.691,-27.832,-13.672,0
1664200656.820,3.906,-29.785,-19.531,-33.203,0
1664200656.807,-58.594,-41.992,-19.043,-77.637,0
1664200656.811,-69.336,-50.293,-16.113,-79.590,0
1664200656.815,-29.785,-40.527,-9.277,-61.523,0
1664200656.819,-67.871,-44.922,-13.184,-78.613,0
1664200656.823,-72.754,-48.828,-10.742,-95.703,0
1664200656.827,-79.102,-44.434,-9.766,-102.051,0
1664200656.831,-86.426,-41.992,-18.555,-96.191,0
1664200656.834,-66.895,-38.086,-22.949,-83.984,0
1664200656.838,-60.059,-40.039,-25.391,-64.941,0
1664200656.842,-51.270,-42.969,-30.273,-65.918,0
1664200656.846,-45.898,-40.527,-36.133,-63.477,0
1664200656.850,-34.180,-38.086,-31.250,-46.875,0
1664200656.853,-31.738,-41.504,-27.832,-41.992,0
1664200656.857,-27.344,-43.945,-27.832,-36.133,0
1664200656.861,-14.648,-43.457,-29.297,-31.250,0
1664200656.865,-21.973,-39.551,-26.855,-31.738,0
1664200656.869,-33.203,-41.016,-22.461,-30.273,0
1664200656.873,-21.973,-41.992,-22.949,-27.832,0
1664200656.877,-21.973,-39.062,-27.344,-44.434,0
1664200656.880,-5.371,-36.621,-25.391,-39.551,0
1664200656.884,3.906,-36.133,-18.066,-11.230,0
1664200656.888,-24.902,-38.574,-19.043,-15.137,0
1664200656.892,-34.180,-37.598,-26.855,-28.809,0
1664200656.896,-38.086,-37.109,-24.414,-28.320,0
1664200656.898,-19.531,-38.574,-16.113,-13.184,0
1664200656.902,-2.930,-35.156,-20.020,-9.277,0
1664200656.906,-7.812,-35.645,-24.414,-37.109,0
1664200656.910,-19.531,-37.109,-24.414,-26.855,0
1664200656.914,-14.160,-34.180,-20.508,-4.395,0
1664200656.918,4.395,-27.832,-14.160,-10.254,0
1664200656.922,4.395,-30.762,-17.578,-7.812,0
1664200656.925,0.000,-37.109,-18.555,-13.672,0
1664200656.929,-3.906,-34.668,-17.578,-22.461,0
1664200656.933,3.418,-25.391,-18.066,-14.648,0
1664200656.937,0.000,-30.273,-16.113,-21.973,0
1664200656.941,-17.090,-39.551,-18.555,-36.133,0
1664200656.958,-19.531,-40.527,-18.066,-31.250,0
1664200656.962,-16.602,-41.016,-15.625,-21.484,0
1664200656.966,-23.926,-35.156,-16.602,-52.734,0
1664200656.970,-40.039,-34.668,-23.438,-68.848,0
1664200656.974,-49.316,-33.691,-25.391,-58.594,0
1664200656.978,-44.434,-25.879,-20.508,-56.641,0
1664200656.982,-36.133,-28.809,-22.461,-53.711,0
1664200656.985,-42.969,-40.039,-24.902,-45.898,0
1664200656.989,-67.383,-34.668,-21.973,-40.527,0
1664200656.993,-63.477,-22.949,-14.648,-36.133,0
1664200656.997,-31.250,-27.832,-6.836,-26.367,0
1664200657.001,-20.020,-31.738,-3.906,-36.621,0
1664200657.003,-32.227,-23.438,-4.883,-37.109,0
1664200657.007,-16.113,-27.832,-14.160,-21.484,0
1664200657.011,20.020,-32.715,-14.648,16.113,0
1664200657.015,31.250,-18.066,-8.789,21.973,0
1664200657.019,-3.906,-13.672,-20.508,-44.434,0
1664200657.023,-18.066,-21.973,-26.367,-57.617,0
1664200657.027,21.484,-25.879,-28.320,-16.113,0
1664200657.030,37.598,-20.508,-37.598,-16.602,0
1664200657.034,14.648,-16.602,-39.062,-29.785,0
1664200657.038,-8.789,-18.555,-36.621,-25.391,0
1664200657.042,-17.578,-17.578,-36.621,-27.832,0
1664200657.046,-7.324,-17.578,-30.762,-32.715,0
1664200657.048,17.090,-17.578,-25.391,-24.902,0
1664200657.052,5.371,-19.043,-26.367,-23.438,0
1664200657.056,-3.906,-23.926,-23.438,-18.066,0
1664200657.060,15.625,-28.320,-25.879,-1.953,0
1664200657.064,28.320,-24.414,-31.250,-19.043,0
1664200657.068,31.250,-21.973,-27.832,-32.715,0
1664200657.072,10.254,-25.879,-17.578,-19.531,0
1664200657.075,5.371,-27.344,-18.555,-10.254,0
1664200657.079,18.066,-25.879,-28.809,-23.926,0
1664200657.083,7.812,-28.320,-29.297,-36.621,0
1664200657.087,-13.184,-28.320,-28.320,-39.551,0
1664200657.091,-9.766,-27.832,-25.391,-37.109,0
1664200657.093,0.000,-31.738,-21.484,-39.551,0
1664200657.097,-6.348,-31.738,-21.484,-33.203,0
1664200657.101,-21.484,-33.203,-13.672,-20.020,0
1664200657.105,-29.297,-34.668,-11.230,-23.926,0
1664200657.109,-9.766,-32.715,-14.160,-25.879,0
1664200657.113,-3.906,-26.367,-12.695,-17.578,0
1664200657.117,-27.344,-27.832,-13.672,-10.742,0
1664200657.120,-16.602,-32.715,-15.625,-2.441,0
1664200657.124,-17.090,-27.832,-16.602,-6.836,0
1664200657.128,-20.508,-24.414,-14.648,-33.203,0
1664200657.132,-9.277,-21.484,-14.160,-27.344,0
1664200657.136,-18.555,-23.926,-18.066,-14.648,0
1664200657.138,-4.883,-28.320,-22.461,-18.066,0
1664200657.142,8.789,-29.785,-23.926,-32.715,0
1664200657.146,-5.371,-28.320,-26.855,-18.066,0
1664200657.150,-7.324,-32.227,-22.949,-18.066,0
1664200657.154,-9.277,-32.227,-25.391,-51.758,0
1664200657.158,-17.578,-23.926,-37.109,-55.176,0
1664200657.162,-30.762,-26.855,-42.969,-43.945,0
1664200657.165,-17.578,-28.320,-44.922,-52.734,0
1664200657.169,-20.020,-27.832,-41.992,-61.035,0
1664200657.173,-26.855,-30.273,-34.668,-43.945,0
1664200657.177,-9.766,-29.785,-26.855,-37.109,0
1664200657.181,-32.227,-32.715,-23.438,-47.852,0
1664200657.183,-34.180,-36.133,-22.461,-51.270,0
1664200657.187,-26.855,-30.273,-19.531,-48.828,0
1664200657.191,-29.297,-27.832,-19.043,-42.480,0
1664200657.195,-13.184,-31.738,-22.461,-36.133,0
1664200657.199,-16.602,-34.180,-25.391,-55.664,0
1664200657.203,-33.691,-38.574,-29.297,-50.293,0
1664200657.207,-33.203,-34.180,-35.645,-35.645,0
1664200657.210,-15.625,-29.297,-35.156,-34.180,0
1664200657.214,-17.090,-40.039,-23.926,-20.996,0
1664200657.218,-25.879,-35.645,-18.555,-34.668,0
1664200657.222,-27.344,-29.297,-27.832,-59.082,0
1664200657.226,-20.996,-30.273,-38.574,-47.852,0
1664200657.228,-23.926,-26.855,-32.715,-42.969,0
1664200657.232,-27.832,-25.391,-24.902,-48.828,0
1664200657.236,-20.020,-27.344,-34.180,-36.133,0
1664200657.240,-27.832,-30.762,-32.715,-42.480,0
1664200657.244,-37.598,-32.227,-28.320,-64.941,0
1664200657.248,-33.691,-33.203,-25.391,-47.363,0
1664200657.252,-15.625,-33.691,-24.902,-39.551,0
1664200657.255,-9.277,-29.297,-25.879,-35.645,0
1664200657.259,-24.902,-22.461,-19.531,-43.457,0
1664200657.263,-31.738,-19.531,-21.484,-41.504,0
1664200657.267,-20.996,-22.461,-29.297,-33.203,0
1664200657.271,-23.926,-26.855,-30.273,-48.340,0
1664200657.273,-24.902,-25.391,-31.738,-53.223,0
1664200657.277,-13.672,-26.855,-30.273,-43.457,0
1664200657.281,3.906,-23.926,-25.391,-35.156,0
1664200657.285,-0.977,-27.832,-22.461,-37.598,0
1664200657.289,-9.766,-33.691,-24.902,-32.227,0
1664200657.293,-6.836,-31.738,-23.438,-23.438,0
1664200657.297,-12.695,-35.645,-19.043,-27.832,0
1664200657.300,-20.996,-35.156,-23.926,-26.367,0
1664200657.304,-6.348,-30.273,-21.973,-26.367,0
1664200657.308,-0.488,-32.715,-19.043,-28.809,0
1664200657.312,-20.508,-31.738,-21.973,-15.625,0
1664200657.316,-25.391,-28.320,-21.484,-21.484,0
1664200657.333,-4.883,-26.855,-18.555,-25.391,0
1664200657.337,-11.719,-28.809,-20.020,-19.043,0
1664200657.341,-33.691,-31.738,-24.414,-35.645,0
1664200657.345,-4.883,-32.715,-24.414,-25.391,0
1664200657.349,-9.277,-29.297,-26.855,-21.973,0
1664200657.353,-33.203,-27.344,-28.320,-39.551,0
1664200657.357,-17.578,-25.391,-24.902,-24.414,0
1664200657.360,-14.648,-22.949,-23.926,-23.926,0
1664200657.364,-16.113,-19.043,-21.484,-24.902,0
1664200657.368,-16.602,-16.602,-22.461,-18.066,0
1664200657.372,-19.531,-25.391,-21.484,-21.973,0
1664200657.376,-11.719,-26.367,-16.602,-30.273,0
1664200657.378,-12.695,-21.973,-14.648,-29.297,0
1664200657.382,-19.043,-26.855,-12.695,-16.602,0
1664200657.386,-8.789,-33.691,-14.160,-25.391,0
1664200657.390,-8.789,-34.180,-12.695,-38.086,0
1664200657.394,4.395,-24.414,-9.277,-35.645,0
1664200657.398,-1.465,-19.531,-14.160,-23.926,0
1664200657.402,-23.926,-29.785,-17.578,-23.438,0
1664200657.405,-27.832,-35.645,-15.625,-22.461,0
1664200657.409,-23.438,-28.320,-20.020,-20.508,0
1664200657.413,-18.066,-29.297,-19.043,-35.156,0
1664200657.417,-22.461,-38.086,-15.137,-45.410,0
1664200657.421,-34.668,-35.156,-16.602,-49.316,0
1664200657.423,-9.277,-27.344,-10.254,-48.340,0
1664200657.427,-11.719,-33.203,-12.695,-46.387,0
1664200657.431,-40.039,-37.109,-18.066,-41.992,0
1664200657.435,-36.133,-30.273,-20.020,-36.621,0
1664200657.439,-8.789,-25.391,-28.809,-25.879,0
1664200657.443,7.324,-20.996,-27.832,-23.926,0
1664200657.447,-16.113,-32.227,-18.555,-40.039,0
1664200657.450,-28.809,-44.434,-18.555,-51.758,0
1664200657.454,-23.438,-40.527,-15.625,-48.828,0
1664200657.458,3.418,-39.062,-13.672,-44.922,0
1664200657.462,21.973,-42.969,-11.719,-28.320,0
1664200657.466,-37.598,-50.293,-7.324,-19.043,0
1664200657.468,-71.289,-51.758,-10.254,-42.480,0
1664200657.472,-40.527,-45.898,-9.277,-49.805,0
1664200657.476,-23.438,-41.992,-7.812,-42.969,0
1664200657.480,-20.020,-41.992,-6.348,-35.156,0
1664200657.484,-9.277,-44.434,-5.371,-33.203,0
1664200657.488,10.254,-35.645,-3.906,-30.762,0
1664200657.492,8.301,-33.203,-6.348,-22.461,0
1664200657.495,-13.184,-38.086,-13.184,-25.391,0
1664200657.499,-19.043,-38.086,-14.648,-32.227,0
1664200657.503,-21.484,-43.457,-15.137,-41.992,0
1664200657.507,-28.320,-43.457,-17.090,-47.852,0
1664200657.511,-8.789,-38.574,-11.719,-30.762,0
1664200657.528,-10.254,-39.062,-10.742,-19.531,0
1664200657.532,-2.930,-32.715,-10.254,-41.016,0
1664200657.536,9.766,-25.391,-10.254,-32.715,0
1664200657.540,8.789,-27.832,-17.090,-21.484,0
1664200657.544,4.883,-30.273,-21.484,-44.434,0
1664200657.548,-8.301,-30.273,-23.438,-51.270,0
1664200657.552,5.371,-29.785,-22.461,-38.086,0
1664200657.555,1.465,-33.691,-24.902,-39.062,0
1664200657.559,-10.254,-35.156,-25.391,-40.039,0
1664200657.563,-20.996,-31.250,-21.973,-40.039,0
1664200657.567,-17.578,-29.297,-18.066,-42.969,0
1664200657.571,12.695,-26.855,-14.160,-31.738,0
1664200657.558,-2.930,-28.809,-16.602,-30.273,0
1664200657.562,-8.301,-29.785,-15.137,-35.156,0
1664200657.566,-0.488,-29.297,-16.602,-28.320,0
1664200657.570,-6.348,-32.715,-20.996,-27.832,0
1664200657.574,7.324,-30.762,-18.555,-31.738,0
1664200657.578,-2.441,-24.902,-22.461,-33.203,0
1664200657.582,-20.996,-29.785,-27.344,-40.039,0
1664200657.585,-23.926,-31.738,-20.508,-41.504,0
1664200657.589,-37.109,-30.762,-17.578,-33.203,0
1664200657.593,-38.086,-33.691,-22.949,-44.922,0
1664200657.597,-31.250,-22.461,-26.367,-55.664,0
1664200657.601,-16.602,-18.555,-27.832,-49.316,0
1664200657.603,-15.625,-29.785,-29.785,-56.641,0
1664200657.607,-25.391,-32.715,-32.227,-54.199,0
1664200657.611,-22.461,-31.250,-29.785,-43.945,0
1664200657.615,-18.555,-28.809,-24.414,-48.828,0
1664200657.619,-28.320,-31.250,-27.344,-49.805,0
1664200657.623,-24.414,-28.320,-29.785,-42.969,0
1664200657.627,-33.203,-24.902,-32.715,-26.367,0
1664200657.630,-34.668,-30.273,-33.203,-40.039,0
1664200657.634,-30.273,-31.738,-34.180,-64.453,0
1664200657.638,-23.438,-26.367,-32.715,-59.082,0
1664200657.642,-9.277,-23.438,-24.414,-40.039,0
1664200657.646,-29.785,-26.855,-19.043,-41.992,0
1664200657.663,-48.340,-32.227,-18.555,-47.363,0
1664200657.667,-47.852,-36.133,-20.508,-41.016,0
1664200657.671,-45.898,-37.109,-20.020,-36.621,0
1664200657.675,-45.410,-35.645,-23.438,-24.414,0
1664200657.679,-35.645,-29.785,-19.531,-34.668,0
1664200657.683,-33.203,-27.832,-21.484,-52.246,0
1664200657.687,-34.668,-33.203,-31.738,-42.480,0
1664200657.690,-36.133,-29.785,-37.598,-43.945,0
1664200657.694,-20.020,-17.578,-38.574,-34.668,0
1664200657.698,-1.465,-13.184,-27.832,-16.113,0
1664200657.702,-29.297,-26.855,-18.555,-30.762,0
1664200657.706,-44.434,-41.992,-23.438,-49.316,0
1664200657.708,-31.250,-42.480,-22.949,-60.547,0
1664200657.712,-14.160,-40.527,-18.066,-52.246,0
1664200657.716,-3.418,-45.898,-17.090,-45.898,0
1664200657.720,1.953,-42.969,-19.531,-53.711,0
1664200657.724,1.465,-34.180,-16.113,-42.480,0
1664200657.728,4.395,-34.180,-9.277,-25.879,0
1664200657.732,-6.348,-40.527,-16.113,-41.016,0
1664200657.735,-13.672,-45.410,-22.949,-45.898,0
1664200657.739,-8.789,-39.062,-20.996,-38.086,0
1664200657.743,-16.113,-29.785,-19.531,-41.992,0
1664200657.747,-3.418,-30.273,-20.996,-41.992,0
1664200657.751,-2.930,-40.039,-20.996,-42.969,0
1664200657.764,-21.484,-45.410,-21.484,-52.734,0
1664200657.768,-16.602,-43.945,-24.414,-44.922,0
1664200657.772,2.930,-41.016,-25.879,-24.902,0
1664200657.776,-4.395,-40.039,-27.832,-39.062,0
1664200657.780,-28.320,-41.016,-25.879,-67.383,0
1664200657.784,-37.109,-41.504,-25.879,-63.965,0
1664200657.788,-28.320,-43.457,-31.738,-52.246,0
1664200657.791,-14.160,-43.457,-30.762,-49.316,0
1664200657.795,-7.812,-41.992,-25.391,-44.922,0
1664200657.799,-8.301,-41.016,-26.367,-33.691,0
1664200657.803,-8.789,-35.156,-19.043,-42.969,0
1664200657.807,4.395,-26.367,-17.578,-36.621,0
1664200657.798,11.719,-29.785,-27.344,-22.949,0
1664200657.802,-4.883,-33.691,-27.344,-43.457,0
1664200657.806,3.906,-28.809,-24.902,-39.551,0
1664200657.810,10.254,-27.344,-21.484,-28.320,0
1664200657.814,-0.977,-28.320,-19.531,-25.879,0
1664200657.818,1.953,-31.250,-22.949,-22.461,0
1664200657.822,13.672,-33.691,-21.973,-21.973,0
1664200657.825,24.414,-29.785,-15.625,-6.348,0
1664200657.829,26.367,-22.461,-15.625,-13.184,0
1664200657.833,20.020,-24.414,-15.137,-28.809,0
1664200657.837,6.836,-33.203,-11.230,-30.273,0
1664200657.841,12.695,-30.762,-10.742,-28.320,0
1664200657.842,32.227,-24.414,-13.184,-25.879,0
1664200657.846,16.113,-24.414,-15.625,-34.668,0
1664200657.850,0.000,-31.738,-17.578,-27.344,0
1664200657.854,22.461,-27.832,-16.113,-23.438,0
1664200657.858,13.672,-26.855,-22.461,-40.527,0
1664200657.862,0.000,-28.320,-23.438,-49.316,0
1664200657.866,2.441,-30.762,-19.043,-45.410,0
1664200657.869,11.719,-31.250,-24.902,-44.922,0
1664200657.873,17.090,-25.879,-26.367,-45.898,0
1664200657.877,8.301,-29.297,-22.461,-22.461,0
1664200657.881,9.766,-29.297,-19.043,-28.809,0
1664200657.885,16.113,-23.926,-16.602,-46.387,0
1664200657.889,40.039,-20.508,-19.531,-35.156,0
1664200657.893,36.133,-20.508,-21.973,-23.438,0
1664200657.897,15.625,-26.367,-28.809,-22.949,0
1664200657.901,19.043,-22.461,-27.344,-24.414,0
1664200657.905,27.344,-11.719,-26.855,-18.555,0
1664200657.909,48.340,-15.625,-22.949,-17.578,0
1664200657.913,17.090,-31.250,-14.160,-29.297,0
1664200657.916,-19.043,-35.156,-16.602,-48.340,0
1664200657.920,1.953,-35.156,-6.836,-48.340,0
1664200657.924,10.742,-40.039,8.301,-34.668,0
1664200657.928,-0.488,-45.410,8.301,-47.852,0
1664200657.932,-10.254,-46.387,1.953,-54.688,0
1664200657.934,-9.277,-41.504,2.930,-42.969,0
1664200657.938,-18.066,-42.480,2.930,-44.922,0
1664200657.942,-9.766,-37.598,2.930,-34.180,0
1664200657.946,-7.324,-35.645,2.441,-20.508,0
1664200657.950,-14.648,-34.180,0.000,-20.996,0
1664200657.954,14.160,-28.809,-2.441,-37.598,0
1664200657.958,25.879,-25.391,-4.395,-48.340,0
1664200657.961,-2.441,-26.855,-7.812,-39.551,0
1664200657.965,-20.020,-30.273,-9.277,-33.691,0
1664200657.969,-15.625,-30.273,-12.207,-28.320,0
1664200657.973,-5.859,-28.320,-10.742,-7.812,0
1664200657.977,-2.930,-26.855,-8.789,-9.277,0
1664200657.978,-9.766,-27.344,-4.883,-35.156,0
1664200657.982,-5.371,-26.855,-5.859,-34.180,0
1664200657.986,4.395,-29.297,-7.812,-30.273,0
1664200657.990,-8.301,-28.809,-10.254,-21.484,0
1664200657.994,-31.738,-32.715,-13.184,-21.973,0
1664200657.998,-19.043,-34.668,-13.184,-36.621,0
1664200658.002,-8.789,-23.438,-18.555,-27.344,0
1664200658.005,-12.207,-21.973,-15.625,-21.973,0
1664200658.009,-19.043,-23.926,-15.137,-24.902,0
1664200658.013,-22.461,-28.809,-20.508,-18.066,0
1664200658.017,-8.789,-27.832,-17.090,-16.602,0
1664200658.021,2.441,-21.973,-16.602,-16.113,0
1664200658.039,5.371,-23.438,-22.461,-19.043,0
1664200658.043,-6.836,-21.484,-21.484,-26.367,0
1664200658.047,-12.695,-19.531,-17.578,-15.625,0
1664200658.051,-1.465,-21.484,-18.066,-20.508,0
1664200658.055,2.441,-24.414,-22.461,-33.203,0
1664200658.059,3.906,-19.531,-22.949,-29.785,0
1664200658.063,-5.859,-22.949,-22.461,-30.273,0
1664200658.066,-0.977,-32.715,-22.949,-29.785,0
1664200658.070,2.930,-28.809,-22.461,-33.691,0
1664200658.074,-12.695,-29.297,-23.438,-44.434,0
1664200658.078,7.324,-26.855,-22.461,-33.203,0
1664200658.082,17.090,-22.949,-24.414,-24.902,0
1664200658.083,-0.977,-20.508,-21.484,-40.527,0
1664200658.087,-23.438,-17.090,-20.508,-48.340,0
1664200658.091,-25.391,-20.508,-20.996,-49.316,0
1664200658.095,5.371,-26.855,-17.090,-43.457,0
1664200658.099,15.625,-26.367,-20.508,-32.227,0
1664200658.103,10.742,-24.414,-23.438,-32.715,0
1664200658.107,2.441,-24.902,-18.066,-32.715,0
1664200658.110,2.441,-26.367,-21.484,-24.902,0
1664200658.114,18.066,-31.250,-28.320,-25.879,0
1664200658.118,20.996,-30.762,-27.832,-35.156,0
1664200658.122,18.066,-22.949,-26.367,-39.551,0
1664200658.126,5.371,-26.367,-25.391,-42.969,0
1664200658.129,-6.348,-35.645,-21.973,-37.598,0
1664200658.133,-3.906,-33.691,-22.461,-35.156,0
1664200658.137,-20.020,-29.297,-23.926,-32.715,0
1664200658.141,-28.809,-27.344,-22.949,-35.156,0
1664200658.145,0.000,-25.879,-26.855,-40.527,0
1664200658.149,6.836,-25.391,-27.344,-37.598,0
1664200658.153,-11.230,-24.414,-24.902,-32.715,0
1664200658.156,-15.625,-30.762,-25.879,-21.973,0
1664200658.160,0.488,-30.273,-21.973,-2.441,0
1664200658.164,14.648,-14.160,-28.809,1.953,0
1664200658.168,-21.484,-9.277,-42.969,-36.621,0
1664200658.172,-54.688,-20.996,-44.434,-73.730,0
1664200658.174,-35.645,-14.648,-48.828,-64.941,0
1664200658.178,-15.625,-6.348,-62.988,-60.547,0
1664200658.182,-22.461,-1.465,-66.406,-59.082,0
1664200658.186,-22.949,2.441,-62.500,-58.105,0
1664200658.190,-6.348,2.930,-64.941,-47.852,0
1664200658.194,5.859,-6.348,-61.523,-43.457,0
1664200658.198,5.371,-14.648,-53.223,-38.086,0
1664200658.201,-6.836,-10.254,-58.105,-28.320,0
1664200658.205,-4.883,-10.254,-59.570,-30.762,0
1664200658.209,30.762,-13.672,-55.664,-22.461,0
1664200658.213,37.598,-13.184,-55.664,-35.156,0
1664200658.217,1.953,-18.066,-56.152,-45.898,0
1664200658.219,6.348,-17.578,-50.781,-34.668,0
1664200658.223,19.043,-15.625,-44.922,-14.160,0
1664200658.227,10.742,-15.625,-42.969,-12.207,0
1664200658.231,11.719,-5.859,-38.574,-19.531,0
1664200658.235,6.348,-8.789,-36.621,-27.344,0
1664200658.239,8.789,-18.555,-38.086,-29.785,0
1664200658.243,28.320,-17.578,-37.598,-24.414,0
1664200658.246,27.344,-8.789,-39.551,-22.949,0
1664200658.250,25.391,-10.742,-40.039,-27.344,0
1664200658.254,9.766,-11.719,-37.109,-27.832,0
1664200658.258,9.277,-12.207,-38.574,-8.789,0
1664200658.262,28.809,-15.137,-36.621,-6.836,0
1664200658.264,3.906,-10.742,-39.062,-33.203,0
1664200658.268,0.488,-7.812,-47.363,-41.016,0
1664200658.272,15.625,-7.324,-39.062,-34.668,0
1664200658.276,32.227,-5.371,-30.273,-21.484,0
1664200658.280,34.180,-7.324,-36.133,-20.508,0
1664200658.284,22.949,-10.742,-31.738,-21.973,0
1664200658.288,27.832,-13.672,-24.414,-14.648,0
1664200658.291,14.648,-16.602,-24.414,-30.273,0
1664200658.295,15.137,-20.996,-28.320,-34.668,0
1664200658.299,13.672,-22.461,-27.344,-23.926,0
1664200658.303,17.090,-17.578,-22.949,-15.137,0
1664200658.307,28.809,-18.555,-17.578,-8.301,0
1664200658.309,-3.418,-25.391,-17.090,-21.484,0
1664200658.313,-35.156,-27.344,-20.508,-32.715,0
1664200658.317,-35.156,-22.949,-30.762,-29.297,0
1664200658.321,-25.879,-18.066,-33.203,-33.691,0
1664200658.325,-29.297,-20.020,-27.832,-39.551,0
1664200658.329,-36.621,-21.973,-25.879,-33.691,0
1664200658.333,-20.996,-22.949,-24.414,-29.785,0
1664200658.336,-5.859,-29.297,-20.020,-34.180,0
1664200658.340,-18.555,-31.738,-20.508,-28.320,0
1664200658.344,-20.996,-22.949,-19.531,-19.043,0
1664200658.348,-4.395,-20.020,-21.973,-21.973,0
1664200658.352,0.000,-22.461,-24.902,-30.273,0
1664200658.353,-13.672,-26.367,-24.414,-26.855,0
1664200658.357,-2.441,-28.809,-22.461,-23.926,0
1664200658.361,-5.859,-29.297,-20.996,-35.156,0
1664200658.365,-13.672,-22.461,-21.484,-37.109,0
1664200658.369,8.301,-17.090,-23.926,-28.320,0
1664200658.373,18.066,-19.531,-25.391,-15.625,0
1664200658.377,-19.043,-28.809,-20.996,-26.367,0
1664200658.380,-39.551,-35.156,-14.160,-41.992,0
1664200658.384,-26.367,-30.273,-7.324,-26.855,0
1664200658.388,-27.344,-27.832,-12.207,-31.250,0
1664200658.392,-30.762,-28.320,-18.066,-40.527,0
1664200658.396,-23.926,-29.297,-12.695,-37.109,0
1664200658.414,-15.625,-30.273,-9.277,-32.715,0
1664200658.418,-18.555,-32.715,-13.672,-23.926,0
1664200658.422,-29.297,-33.691,-13.672,-17.578,0
1664200658.426,-46.387,-34.668,-18.066,-19.531,0
1664200658.430,-40.527,-35.156,-17.090,-9.766,0
1664200658.434,-24.902,-31.738,-11.230,-20.508,0
1664200658.438,-30.762,-34.668,-17.090,-41.016,0
1664200658.441,-26.855,-38.086,-20.508,-40.039,0
1664200658.445,-2.441,-30.762,-14.648,-36.621,0
1664200658.449,1.465,-30.273,-18.555,-24.902,0
1664200658.453,9.277,-30.762,-15.137,-19.043,0
1664200658.457,-3.418,-28.320,-9.766,-32.227,0
1664200658.459,-21.484,-31.738,-15.137,-41.016,0
1664200658.463,-5.371,-29.297,-19.043,-36.133,0
1664200658.467,2.930,-26.855,-18.555,-35.156,0
1664200658.471,-18.555,-28.320,-14.160,-35.156,0
1664200658.475,-34.180,-28.320,-12.207,-20.508,0
1664200658.479,-34.180,-26.367,-14.160,-31.250,0
1664200658.483,-27.832,-28.320,-20.508,-34.180,0
1664200658.486,-16.602,-33.203,-22.461,-34.668,0
1664200658.490,-7.324,-28.320,-18.066,-44.922,0
1664200658.494,2.930,-20.996,-16.602,-27.832,0
1664200658.498,12.207,-22.461,-17.090,-27.832,0
1664200658.502,-8.789,-30.762,-20.508,-40.527,0
1664200658.504,-42.969,-30.762,-21.484,-36.621,0
1664200658.508,-38.574,-24.414,-18.066,-34.180,0
1664200658.512,-30.273,-25.391,-21.973,-28.320,0
1664200658.516,-41.016,-27.832,-13.672,-33.203,0
1664200658.520,-50.781,-25.391,7.812,-55.176,0
1664200658.524,-34.668,-25.879,18.555,-46.387,0
1664200658.528,-19.531,-32.715,17.090,-35.645,0
1664200658.531,-2.930,-35.156,15.625,-39.062,0
1664200658.535,13.184,-28.320,16.113,-23.438,0
1664200658.539,-34.180,-27.832,10.742,-34.668,0
1664200658.543,-57.617,-38.574,12.695,-36.133,0
1664200658.547,-33.203,-34.668,20.508,-18.066,0
1664200658.549,-28.320,-24.902,17.578,-21.484,0
1664200658.553,-25.391,-20.996,12.207,-31.250,0
1664200658.557,-17.578,-17.578,11.230,-39.551,0
1664200658.561,-8.789,-17.090,14.160,-36.621,0
1664200658.565,-8.789,-32.227,9.766,-21.973,0
1664200658.569,-13.672,-37.109,8.301,-9.766,0
1664200658.573,-21.484,-23.438,4.883,-31.738,0
1664200658.576,-31.250,-18.066,-3.418,-48.828,0
1664200658.580,-23.926,-14.648,-1.953,-34.180,0
1664200658.584,-30.273,-20.996,-0.488,-38.574,0
1664200658.588,-39.062,-23.438,0.977,-39.062,0
1664200658.592,-26.855,-23.926,7.324,-48.340,0
1664200658.594,-7.812,-28.320,5.371,-42.480,0
1664200658.598,10.742,-23.438,3.418,-16.602,0
1664200658.602,-9.277,-22.949,3.906,-24.902,0
1664200658.606,-29.785,-25.391,-2.930,-33.691,0
1664200658.610,-28.320,-24.902,-1.953,-29.785,0
1664200658.614,-12.207,-21.973,-1.953,-27.344,0
1664200658.618,-9.766,-21.973,-9.277,-37.598,0
1664200658.621,-12.207,-20.508,-7.812,-30.762,0
1664200658.625,3.906,-20.020,-6.348,-21.484,0
1664200658.629,18.555,-25.879,-11.230,-30.273,0
1664200658.633,-2.930,-32.227,-17.090,-31.250,0
1664200658.637,-19.531,-33.691,-16.113,-31.738,0
1664200658.639,-11.230,-28.320,-12.207,-33.203,0
1664200658.643,0.000,-26.367,-12.695,-39.062,0
1664200658.647,-2.441,-28.320,-15.137,-28.320,0
1664200658.651,-22.461,-26.367,-19.043,-22.461,0
1664200658.655,-11.719,-26.367,-21.484,-41.992,0
1664200658.659,8.301,-30.273,-22.949,-38.574,0
1664200658.663,-11.230,-28.809,-24.902,-35.645,0
1664200658.666,-28.320,-26.367,-22.461,-40.039,0
1664200658.670,-31.250,-24.902,-18.066,-41.992,0
1664200658.674,-22.461,-24.902,-16.602,-30.762,0
1664200658.678,-20.996,-22.461,-17.578,-22.949,0
1664200658.682,-45.410,-25.879,-21.973,-39.062,0
1664200658.684,-55.664,-29.297,-19.043,-43.945,0
1664200658.688,-48.340,-31.250,-19.043,-32.715,0
1664200658.692,-48.340,-31.738,-22.461,-28.320,0
1664200658.696,-66.406,-26.367,-21.484,-25.879,0
1664200658.700,-71.777,-24.414,-21.973,-49.316,0
1664200658.704,-61.523,-20.020,-22.949,-48.340,0
1664200658.708,-61.035,-15.137,-20.996,-40.039,0
1664200658.711,-58.105,-20.508,-21.484,-46.387,0
1664200658.715,-68.359,-30.273,-27.832,-45.898,0
1664200658.719,-67.871,-21.973,-26.367,-39.062,0
1664200658.723,-61.035,-16.113,-22.949,-35.645,0
1664200658.727,-59.570,-21.973,-21.973,-43.457,0
1664200658.728,-53.711,-18.555,-24.902,-31.250,0
1664200658.732,-52.734,-21.973,-29.297,-37.598,0
1664200658.736,-52.734,-29.785,-25.879,-38.086,0
1664200658.740,-55.176,-25.391,-27.832,-31.250,0
1664200658.744,-35.645,-22.949,-27.832,-42.480,0
1664200658.748,-29.297,-22.949,-21.973,-38.086,0
1664200658.752,-61.523,-25.391,-21.484,-28.320,0
1664200658.755,-67.871,-32.227,-25.391,-34.180,0
1664200658.759,-58.105,-35.645,-20.996,-32.715,0
1664200658.763,-58.105,-32.227,-19.531,-37.598,0
1664200658.767,-52.246,-30.273,-22.461,-59.570,0
1664200658.771,-49.805,-31.250,-24.414,-47.363,0
1664200658.773,-63.965,-36.621,-29.297,-44.434,0
1664200658.777,-75.195,-34.668,-28.320,-47.363,0
1664200658.781,-61.035,-28.809,-25.879,-27.344,0
1664200658.785,-32.227,-30.762,-31.738,-31.250,0
1664200658.789,-19.531,-30.762,-36.621,-25.391,0
1664200658.793,-60.547,-26.367,-30.273,-21.973,0
1664200658.797,-84.961,-34.668,-17.578,-33.203,0
1664200658.800,-69.824,-41.016,-10.254,-24.414,0
1664200658.804,-60.547,-32.715,-13.184,-38.086,0
1664200658.808,-51.758,-30.273,-17.090,-43.945,0
1664200658.812,-35.645,-26.855,-15.625,-41.992,0
1664200658.816,-10.254,-24.414,-15.137,-28.809,0
1664200658.833,0.000,-23.438,-14.648,-16.602,0
1664200658.837,-24.902,-23.926,-14.648,-32.227,0
1664200658.841,-23.438,-25.391,-14.160,-24.414,0
1664200658.845,-10.254,-26.367,-15.625,-14.160,0
1664200658.849,-16.602,-32.227,-20.020,-19.043,0
1664200658.853,-16.113,-33.691,-23.438,-16.113,0
1664200658.857,-34.180,-35.645,-20.508,-29.297,0
1664200658.860,-28.809,-28.320,-15.137,-30.762,0
1664200658.864,-1.953,-25.879,-20.508,-13.184,0
1664200658.868,-7.324,-32.227,-24.414,-20.020,0
1664200658.872,-30.273,-33.203,-24.414,-32.227,0
1664200658.876,-38.574,-31.250,-22.949,-24.414,0
1664200658.878,-29.785,-28.320,-17.578,-26.855,0
1664200658.882,-30.762,-24.902,-18.555,-29.785,0
1664200658.886,-26.855,-24.414,-24.902,-30.273,0
1664200658.890,-18.555,-18.066,-25.879,-32.227,0
1664200658.894,-14.648,-16.602,-24.414,-34.180,0
1664200658.898,-9.766,-24.414,-23.438,-30.273,0
1664200658.902,-13.672,-27.832,-28.320,-32.227,0
1664200658.905,-9.277,-29.297,-24.902,-28.809,0
1664200658.909,-11.230,-27.344,-18.066,-17.578,0
1664200658.913,-26.367,-27.344,-21.973,-24.902,0
1664200658.917,-14.160,-28.320,-17.578,-17.578,0
1664200658.921,-4.395,-25.879,-14.160,-14.648,0
1664200658.924,-21.973,-23.926,-16.602,-22.949,0
1664200658.928,-15.625,-26.367,-13.672,-20.996,0
1664200658.932,4.883,-25.879,-15.137,-15.137,0
1664200658.936,-13.184,-24.902,-17.090,-20.996,0
1664200658.940,-22.949,-24.414,-14.160,-22.949,0
1664200658.944,-2.930,-22.949,-12.207,-14.160,0
1664200658.948,-14.160,-21.973,-10.742,-15.625,0
1664200658.951,-31.250,-24.902,-16.602,-16.602,0
1664200658.955,-9.766,-22.461,-19.043,-24.902,0
1664200658.959,-24.902,-23.926,-12.695,-34.180,0
1664200658.963,-45.410,-35.156,-9.277,-29.785,0
