timestamps,TP9,AF7,AF8,TP10
1664549461.152,-64.941,-28.320,-29.785,-43.457
1664549461.156,-44.434,-30.273,-14.648,-34.668
1664549461.160,-22.949,-27.832,-8.301,-24.414
1664549461.164,-42.969,-26.367,-9.766,-40.039
1664549461.168,-68.848,-24.902,-16.602,-47.852
1664549461.172,-54.688,-25.879,-36.133,-29.297
1664549461.176,-26.367,-27.344,-33.691,0.977
1664549461.179,-39.062,-26.367,-13.672,-17.578
1664549461.183,-64.941,-30.273,-20.020,-57.129
1664549461.187,-55.176,-28.809,-24.902,-40.527
1664549461.191,-34.668,-26.855,-34.180,2.441
1664549461.195,-33.691,-32.227,-41.992,-0.977
1664549461.211,-55.176,-32.715,-34.668,-37.109,0
1664549461.215,-67.383,-27.832,-22.949,-40.039,0
1664549461.219,-46.387,-23.926,-19.531,-17.578,0
1664549461.223,-27.344,-23.926,-22.461,-5.859,0
1664549461.227,-31.738,-24.902,-24.414,-21.484,0
1664549461.231,-39.551,-21.973,-22.949,-21.973,0
1664549461.235,-31.250,-21.973,-31.738,-8.789,0
1664549461.238,-16.113,-27.832,-42.969,-3.418,0
1664549461.242,-28.809,-25.879,-42.969,-10.742,0
1664549461.246,-47.363,-25.879,-31.250,-27.832,0
1664549461.250,-48.340,-26.855,-10.742,-30.762,0
1664549461.254,-35.645,-24.902,-1.465,-21.484,0
1664549461.257,-27.832,-23.438,-16.113,-21.973,0
1664549461.261,-45.898,-23.926,-28.320,-40.527,0
1664549461.265,-51.270,-26.367,-10.254,-51.758,0
1664549461.269,-25.391,-20.996,-14.160,-25.879,0
1664549461.273,-15.137,-11.719,-26.367,-2.930,0
1664549461.277,-39.551,-13.184,-7.812,-13.672,0
1664549461.281,-66.406,-21.973,2.930,-45.410,0
1664549461.284,-56.641,-22.461,-9.277,-50.781,0
1664549461.288,-30.762,-20.996,-20.996,-19.531,0
1664549461.292,-42.969,-23.438,-30.273,-17.090,0
1664549461.296,-65.918,-21.484,-27.832,-33.691,0
1664549461.300,-50.781,-17.578,-14.648,-19.043,0
1664549461.302,-28.809,-21.484,-10.254,-15.137,0
1664549461.306,-36.133,-24.414,-28.320,-23.438,0
1664549461.310,-55.176,-22.461,-19.043,-45.410,0
1664549461.314,-58.594,-24.902,-15.137,-38.574,0
1664549461.318,-41.992,-17.578,-34.668,1.465,0
1664549461.322,-28.320,-12.695,-24.414,-1.953,0
1664549461.326,-53.711,-21.484,-12.695,-30.762,0
1664549461.329,-68.848,-29.785,-25.391,-44.922,0
1664549461.333,-43.945,-35.156,-38.574,-16.113,0
1664549461.337,-31.250,-33.691,-35.645,2.441,0
1664549461.341,-44.922,-24.414,-25.879,-20.020,0
1664549461.345,-51.270,-20.508,-22.949,-30.762,0
1664549461.347,-35.156,-22.461,-16.602,-28.809,0
1664549461.351,-9.277,-26.367,-37.598,-10.742,0
1664549461.355,-20.508,-29.297,-54.688,-19.531,0
1664549461.359,-51.758,-27.832,-39.062,-40.527,0
1664549461.363,-44.434,-27.832,-32.227,-28.809,0
1664549461.367,-21.484,-29.297,-26.367,-7.812,0
1664549461.371,-32.715,-32.715,-17.090,-24.902,0
1664549461.374,-51.758,-31.250,-17.578,-38.574,0
1664549461.378,-54.688,-24.414,-34.668,-29.297,0
1664549461.382,-41.016,-27.832,-40.527,-23.438,0
1664549461.386,-27.344,-32.715,-33.691,-13.184,0
1664549461.390,-52.246,-33.691,-26.855,-38.086,0
1664549461.392,-61.523,-34.668,-29.785,-64.453,0
1664549461.396,-36.133,-31.738,-50.781,-40.527,0
1664549461.400,-20.508,-27.344,-57.129,-16.602,0
1664549461.404,-42.969,-31.738,-42.969,-28.320,0
1664549461.408,-65.918,-23.926,-29.785,-40.039,0
1664549461.412,-44.922,-18.066,-25.391,-23.926,0
1664549461.416,-31.250,-29.785,-26.367,-9.277,0
1664549461.419,-41.992,-35.156,-23.926,0.488,0
1664549461.423,-62.012,-34.180,-27.832,-17.090,0
1664549461.427,-58.594,-25.879,-31.250,-30.762,0
1664549461.431,-32.227,-20.508,-19.531,-4.395,0
1664549461.435,-30.762,-24.414,-18.555,-18.555,0
1664549461.437,-46.875,-21.484,-31.250,-46.875,0
1664549461.441,-55.176,-19.043,-38.086,-41.504,0
1664549461.445,-36.133,-28.320,-39.062,-14.160,0
1664549461.449,-20.020,-33.691,-28.320,-11.719,0
1664549461.453,-34.668,-27.344,-19.531,-37.109,0
1664549461.457,-44.434,-23.438,-14.648,-48.828,0
1664549461.461,-35.156,-26.367,-11.719,-28.320,0
1664549461.464,-21.484,-25.391,-22.461,6.836,0
1664549461.468,-41.992,-29.297,-29.297,-17.090,0
1664549461.472,-61.035,-33.691,-26.367,-41.016,0
1664549461.476,-45.410,-31.738,-28.809,-20.508,0
1664549461.480,-22.949,-23.438,-42.480,7.324,0
1664549461.482,-27.832,-23.438,-33.691,-3.906,0
1664549461.486,-56.152,-28.809,-12.695,-49.805,0
1664549461.490,-50.293,-22.949,-1.465,-50.781,0
1664549461.494,-31.738,-21.973,-13.184,-22.949,0
1664549461.498,-29.297,-31.250,-38.086,-20.508,0
1664549461.502,-43.945,-35.156,-31.738,-41.992,0
1664549461.506,-60.547,-35.156,-22.949,-26.367,0
1664549461.509,-52.734,-26.855,-20.996,3.418,0
1664549461.513,-46.875,-20.020,-20.020,-17.578,0
1664549461.517,-57.617,-22.949,-33.203,-32.715,0
1664549461.521,-62.988,-21.484,-55.664,-23.926,0
1664549461.525,-42.969,-17.578,-47.852,-13.672,0
1664549461.527,-25.879,-21.973,-20.508,0.488,0
1664549461.531,-40.039,-27.344,-12.207,-15.625,0
1664549461.535,-62.012,-25.391,-15.625,-48.828,0
1664549461.539,-55.664,-26.367,-32.227,-39.551,0
1664549461.543,-33.691,-32.227,-31.250,-16.113,0
1664549461.547,-36.621,-29.785,-26.367,-19.043,0
1664549461.551,-55.664,-23.438,-22.461,-27.832,0
1664549461.554,-50.781,-21.484,-20.996,-30.273,0
1664549461.558,-19.043,-18.066,-47.363,-7.812,0
1664549461.562,-15.625,-20.020,-33.203,9.277,0
1664549461.566,-47.852,-24.414,4.395,-14.160,0
1664549461.570,-56.641,-22.461,-0.488,-33.691,0
1664549461.587,-35.645,-19.043,-16.113,-15.625,0
1664549461.591,-20.020,-19.043,-20.508,1.953,0
1664549461.595,-35.645,-21.973,-20.508,-23.438,0
1664549461.599,-58.105,-20.996,-21.973,-45.898,0
1664549461.603,-42.480,-22.461,-29.785,-29.785,0
1664549461.607,-16.602,-20.996,-51.758,3.906,0
1664549461.611,-24.902,-26.367,-46.387,2.441,0
1664549461.614,-49.316,-31.250,-2.441,-33.203,0
1664549461.618,-40.527,-25.391,9.277,-39.551,0
1664549461.622,-21.484,-24.414,-6.348,-5.859,0
1664549461.626,-31.250,-22.949,-12.207,-0.977,0
1664549461.630,-46.387,-21.973,-27.344,-23.926,0
1664549461.632,-41.504,-18.066,-22.949,-22.949,0
1664549461.636,-29.297,-20.996,-7.812,-8.789,0
1664549461.640,-25.391,-24.414,-23.926,-1.953,0
1664549461.644,-36.133,-15.625,-36.133,-14.648,0
1664549461.648,-49.805,-14.648,-38.574,-26.855,0
1664549461.652,-40.527,-23.438,-30.762,-6.836,0
1664549461.656,-29.297,-24.902,-10.254,9.766,0
1664549461.659,-44.434,-22.461,-3.906,-18.555,0
1664549461.663,-56.641,-24.414,-20.996,-32.715,0
1664549461.667,-42.969,-24.902,-26.367,-4.883,0
1664549461.671,-26.855,-22.949,-18.555,-6.836,0
1664549461.675,-35.645,-25.879,-21.973,-15.625,0
1664549461.677,-62.012,-26.367,-27.344,-22.949,0
1664549461.681,-67.871,-26.367,-37.598,-26.855,0
1664549461.685,-47.363,-23.926,-46.387,-9.766,0
1664549461.689,-41.992,-28.809,-46.387,-10.254,0
1664549461.693,-62.988,-32.227,-22.461,-31.250,0
1664549461.697,-65.918,-25.879,-17.578,-33.691,0
1664549461.701,-41.504,-23.438,-27.832,-15.625,0
1664549461.704,-38.574,-20.508,-20.996,-12.695,0
1664549461.708,-58.105,-20.508,-19.043,-14.160,0
1664549461.712,-59.570,-24.414,-16.602,-28.809,0
1664549461.716,-40.527,-26.367,-24.902,-32.715,0
1664549461.720,-33.203,-29.785,-33.203,-14.648,0
1664549461.722,-42.969,-31.250,-23.438,-25.879,0
1664549461.726,-42.969,-20.996,-39.551,-30.762,0
1664549461.730,-41.992,-19.043,-33.691,-23.438,0
1664549461.734,-34.180,-20.996,-15.625,-6.836,0
1664549461.738,-34.668,-21.484,-17.578,-7.812,0
1664549461.742,-56.641,-23.926,-20.996,-29.297,0
1664549461.746,-56.152,-20.996,-34.668,-28.809,0
1664549461.749,-32.715,-20.508,-40.039,-5.859,0
1664549461.753,-28.809,-18.555,-31.738,0.977,0
1664549461.757,-45.410,-16.113,-28.809,-31.250,0
1664549461.761,-47.852,-16.602,-32.715,-30.273,0
1664549461.765,-33.203,-24.414,-33.691,-10.254,0
1664549462.667,-27.344,-24.902,-30.273,-9.766,0
1664549462.671,-41.504,-22.461,-24.414,-28.809,0
1664549462.675,-54.688,-21.973,-32.227,-47.363,0
1664549462.679,-41.016,-24.902,-26.855,-29.297,0
1664549462.683,-20.996,-20.996,-15.137,0.000,0
1664549462.687,-35.156,-17.090,-10.742,-14.160,0
1664549462.691,-59.570,-18.066,-17.090,-40.039,0
1664549462.694,-55.664,-19.531,-31.250,-17.578,0
1664549462.698,-36.621,-25.879,-19.531,-5.859,0
1664549462.702,-37.598,-25.879,-16.113,-30.273,0
1664549462.706,-45.898,-17.578,-37.598,-29.785,0
1664549462.710,-41.504,-15.137,-41.016,-15.625,0
1664549462.667,-37.109,-20.508,-23.438,-8.301,0
1664549462.671,-37.598,-19.043,-10.254,-20.020,0
1664549462.675,-55.176,-18.555,-17.090,-43.457,0
1664549462.679,-66.406,-20.020,-34.668,-46.387,0
1664549462.683,-45.410,-21.484,-41.992,-20.020,0
1664549462.687,-27.344,-18.555,-34.668,-2.930,0
1664549462.691,-33.691,-12.207,-29.785,-17.578,0
1664549462.694,-45.410,-15.625,-31.250,-23.926,0
1664549462.698,-41.016,-13.672,-26.367,-17.090,0
1664549462.702,-22.949,-12.207,-28.320,-16.602,0
1664549462.706,-33.691,-19.531,-26.367,-26.855,0
1664549462.710,-59.570,-24.414,-11.719,-38.574,0
1664549462.676,-61.035,-25.391,-11.719,-36.133,0
1664549462.680,-34.180,-23.438,-11.719,-9.277,0
1664549462.684,-25.391,-24.414,-10.254,3.418,0
1664549462.688,-47.363,-23.438,-11.719,-29.297,0
1664549462.692,-45.410,-20.508,-24.414,-38.086,0
1664549462.696,-20.996,-15.625,-27.832,-11.719,0
1664549462.700,-14.648,-18.066,-18.555,8.789,0
1664549462.703,-43.457,-27.832,-3.906,-14.160,0
1664549462.707,-62.500,-28.809,1.953,-62.500,0
1664549462.711,-43.457,-33.203,-14.648,-46.387,0
1664549462.715,-35.645,-39.062,-23.926,-17.578,0
1664549462.719,-47.852,-30.762,-29.297,-20.996,0
1664549462.683,-62.988,-30.762,-13.672,-45.898,0
1664549462.687,-62.500,-36.621,-4.395,-40.039,0
1664549462.691,-38.086,-33.203,-22.949,-10.254,0
1664549462.695,-41.016,-38.086,-22.461,-28.809,0
1664549462.699,-64.941,-35.645,-0.488,-58.105,0
1664549462.703,-62.012,-31.738,3.418,-42.969,0
1664549462.707,-31.250,-26.855,-10.742,-2.930,0
1664549462.710,-26.367,-24.902,-28.320,-5.859,0
1664549462.714,-58.105,-32.227,-11.230,-43.457,0
1664549462.718,-66.406,-36.133,-3.906,-39.551,0
1664549462.722,-52.246,-31.250,-19.043,-7.324,0
1664549462.726,-39.551,-21.484,-10.742,-8.301,0
1664549462.688,-52.246,-24.902,-16.602,-26.855,0
1664549462.692,-66.895,-28.809,-24.414,-37.109,0
1664549462.696,-50.293,-25.879,-23.926,-31.738,0
1664549462.700,-24.902,-22.461,-20.996,-19.043,0
1664549462.704,-23.926,-19.531,-39.551,-25.391,0
1664549462.708,-45.898,-19.531,-57.617,-31.250,0
1664549462.712,-50.781,-21.484,-28.809,-26.855,0
1664549462.715,-40.527,-28.320,-19.043,-34.668,0
1664549462.719,-47.363,-33.691,-21.973,-44.922,0
1664549462.723,-67.871,-32.227,-8.789,-56.641,0
1664549462.727,-71.777,-31.738,-11.230,-60.059,0
1664549462.731,-50.293,-33.203,-20.508,-33.203,0
1664549462.696,-34.668,-28.809,-33.203,-16.602,0
1664549462.700,-46.875,-25.391,-47.852,-24.902,0
1664549462.704,-61.523,-25.391,-49.316,-25.879,0
1664549462.708,-54.688,-29.785,-28.809,-25.391,0
1664549462.712,-46.875,-23.926,0.000,-22.949,0
1664549462.716,-54.688,-21.484,0.488,-26.855,0
1664549462.720,-63.477,-26.367,-4.883,-43.457,0
1664549462.723,-45.410,-20.996,-6.836,-31.738,0
1664549462.727,-27.344,-24.414,-20.996,3.418,0
1664549462.731,-40.527,-24.902,-24.414,11.230,0
1664549462.735,-51.758,-16.602,-24.414,-14.648,0
1664549462.739,-37.598,-23.438,-24.902,-13.672,0
1664549462.706,-23.926,-25.879,-12.207,10.742,0
1664549462.710,-37.598,-22.461,-12.695,0.488,0
1664549462.714,-62.988,-28.809,-10.742,-33.203,0
1664549462.718,-58.105,-27.344,-10.742,-33.691,0
1664549462.722,-41.504,-30.273,-16.602,-11.230,0
1664549462.726,-41.992,-33.203,-25.879,-12.695,0
1664549462.730,-54.199,-26.855,-41.504,-24.902,0
1664549462.733,-59.082,-22.461,-30.762,-29.297,0
1664549462.737,-31.738,-22.949,-28.809,-0.488,0
1664549462.741,-25.391,-26.855,-26.855,12.207,0
1664549462.745,-46.387,-28.809,-11.719,-28.320,0
1664549462.749,-53.223,-26.367,-20.508,-42.480,0
1664549462.729,-47.363,-29.785,-14.648,-34.180,0
1664549462.733,-35.645,-35.645,-10.742,-34.668,0
1664549462.737,-42.969,-30.762,-14.160,-41.992,0
1664549462.741,-55.176,-23.438,-14.160,-57.129,0
1664549462.745,-46.387,-27.832,-27.344,-54.199,0
1664549462.749,-34.668,-29.785,-37.109,-21.973,0
1664549462.753,-33.203,-25.879,-23.926,-19.531,0
1664549462.756,-46.387,-23.926,-21.484,-37.598,0
1664549462.760,-53.711,-25.391,-25.879,-18.555,0
1664549462.764,-33.203,-24.414,-17.090,-10.742,0
1664549462.768,-14.648,-20.020,-20.996,-9.277,0
1664549462.772,-40.527,-26.367,-30.762,-21.484,0
1664549462.731,-56.641,-32.715,-27.344,-37.109,0
1664549462.735,-37.598,-25.879,-32.715,-33.691,0
1664549462.739,-21.973,-22.461,-41.992,-13.184,0
1664549462.743,-37.598,-25.879,-27.344,-18.066,0
1664549462.747,-51.270,-26.367,-11.719,-41.016,0
1664549462.751,-43.457,-27.832,-15.625,-36.133,0
1664549462.755,-32.227,-27.832,-27.344,-12.695,0
1664549462.758,-39.062,-27.344,-40.527,-3.906,0
1664549462.762,-60.059,-27.832,-30.273,-27.832,0
1664549462.766,-58.105,-21.973,-30.762,-32.715,0
1664549462.770,-34.180,-25.391,-50.781,-3.418,0
1664549462.774,-30.273,-33.203,-41.016,-5.371,0
1664549462.735,-54.199,-32.715,-33.203,-39.062,0
1664549462.739,-54.688,-29.785,-38.574,-50.781,0
1664549462.743,-30.762,-25.879,-36.133,-23.926,0
1664549462.747,-26.367,-25.879,-24.902,-9.277,0
1664549462.751,-46.875,-28.809,-23.438,-39.551,0
1664549462.755,-67.383,-27.832,-26.367,-61.035,0
1664549462.759,-49.805,-23.438,-31.250,-35.645,0
1664549462.762,-26.855,-23.438,-47.363,-3.418,0
1664549462.766,-41.016,-27.832,-32.227,-24.902,0
1664549462.770,-55.664,-29.785,-14.160,-51.270,0
1664549462.774,-49.316,-22.949,-28.809,-36.621,0
1664549462.778,-26.855,-20.508,-30.273,-8.789,0
1664549462.736,-23.438,-20.508,-29.297,-14.648,0
1664549462.740,-46.387,-18.066,-20.996,-46.387,0
1664549462.744,-55.176,-27.832,-19.043,-43.945,0
1664549462.748,-37.109,-32.715,-34.180,-10.254,0
1664549462.752,-31.250,-25.391,-32.715,-8.789,0
1664549462.756,-51.758,-24.902,-29.297,-36.133,0
1664549462.760,-58.105,-30.762,-30.273,-23.438,0
1664549462.763,-33.691,-28.320,-25.391,-1.953,0
1664549462.767,-33.691,-31.250,-17.090,-33.691,0
1664549462.771,-60.547,-31.738,-14.160,-58.594,0
1664549462.775,-61.523,-23.926,-23.926,-50.781,0
1664549462.779,-41.992,-20.508,-22.949,-28.809,0
1664549462.737,-26.367,-17.090,-20.508,-18.066,0
1664549462.741,-35.645,-15.137,-30.762,-25.879,0
1664549462.745,-58.105,-21.973,-23.438,-46.387,0
1664549462.749,-53.711,-24.414,-15.625,-43.945,0
1664549462.753,-31.738,-17.090,-20.020,-13.672,0
1664549462.757,-37.598,-20.996,-36.621,-4.395,0
1664549462.761,-66.406,-28.320,-26.855,-21.973,0
1664549462.764,-56.152,-29.297,-6.836,-28.809,0
1664549462.768,-22.461,-24.902,-15.625,-6.836,0
1664549462.772,-15.625,-14.648,-31.250,9.766,0
1664549462.776,-48.340,-20.508,-25.879,-27.832,0
1664549462.780,-67.871,-31.250,-17.090,-50.781,0
1664549462.739,-39.062,-31.250,-17.090,-11.719,0
1664549462.743,-13.184,-31.738,-5.859,26.367,0
1664549462.747,-19.531,-29.297,-0.977,15.137,0
1664549462.751,-41.992,-29.297,-1.465,-11.719,0
1664549462.755,-22.461,-20.020,-2.930,17.578,0
1664549462.759,15.137,-8.789,-9.277,58.105,0
1664549462.763,13.672,-14.160,-13.672,45.898,0
1664549462.766,-8.301,-21.973,-13.672,15.137,0
1664549462.770,-6.836,-20.020,-9.766,19.531,0
1664549462.774,18.066,-13.672,-18.066,53.711,0
1664549462.778,26.855,-8.301,-11.719,48.340,0
1664549462.782,0.488,-16.602,-2.930,6.836,0
1664549462.740,-15.137,-26.855,-26.367,13.184,0
1664549462.744,4.883,-24.902,-24.902,41.016,0
1664549462.748,12.207,-20.508,2.441,31.738,0
1664549462.752,-7.812,-24.414,-1.465,-11.719,0
1664549462.756,-28.320,-29.297,-7.812,-18.066,0
1664549462.760,-11.719,-28.320,-0.977,20.020,0
1664549462.764,-0.977,-26.855,3.418,25.879,0
1664549462.767,-19.531,-28.809,-12.207,0.488,0
1664549462.771,-33.691,-27.832,-23.926,-5.371,0
1664549462.775,-14.160,-26.367,-10.742,20.020,0
1664549462.779,7.324,-25.391,-13.184,26.367,0
1664549462.783,-0.977,-24.902,-19.531,14.160,0
1664549462.741,-15.137,-23.926,-11.719,-1.953,0
1664549462.745,-15.137,-29.297,-7.812,-5.371,0
1664549462.749,-7.812,-37.109,0.488,1.953,0
1664549462.753,-19.043,-40.527,4.883,-5.859,0
1664549462.757,-31.738,-33.203,-6.348,-16.602,0
1664549462.761,-32.227,-22.461,-23.926,-9.277,0
1664549462.765,-20.508,-23.438,-17.578,11.230,0
1664549462.768,-8.789,-28.320,-11.719,15.625,0
1664549462.772,-26.855,-31.250,-29.297,13.184,0
1664549462.776,-48.340,-30.762,-20.996,2.441,0
1664549462.780,-35.645,-29.785,-9.277,-7.812,0
1664549462.784,-20.996,-30.273,-17.090,11.230,0
1664549462.743,-37.109,-32.227,-19.531,2.930,0
1664549462.747,-58.105,-26.855,-27.832,-13.672,0
1664549462.751,-44.922,-21.484,-31.738,-5.371,0
1664549462.755,-17.578,-24.902,-30.273,13.184,0
1664549462.759,-16.602,-27.832,-17.090,7.324,0
1664549462.763,-48.340,-29.297,-9.766,-20.508,0
1664549462.767,-56.641,-26.855,-18.066,-27.832,0
1664549462.770,-22.949,-20.508,-8.789,-10.254,0
1664549462.774,-13.184,-14.160,-19.043,3.418,0
1664549462.778,-40.527,-10.742,-20.996,-23.438,0
1664549462.782,-56.641,-20.020,-3.418,-48.828,0
1664549462.786,-33.691,-22.949,-3.906,-23.926,0
1664549462.745,-23.926,-16.602,-10.254,-0.488,0
1664549462.749,-52.246,-15.137,-18.066,-39.551,0
1664549462.753,-56.641,-14.160,-23.438,-59.570,0
1664549462.757,-39.062,-17.578,-37.598,-36.133,0
1664549462.761,-37.598,-24.414,-43.457,-20.508,0
1664549462.765,-47.363,-20.996,-20.996,-19.531,0
1664549462.769,-62.988,-20.996,-11.230,-36.133,0
1664549462.772,-48.828,-22.949,-16.113,-25.879,0
1664549462.776,-25.391,-16.602,-11.230,-4.883,0
1664549462.780,-35.156,-20.996,-12.695,-29.785,0
1664549462.784,-58.105,-21.484,-24.902,-46.387,0
1664549462.788,-62.988,-15.625,-32.715,-43.945,0
1664549462.748,-42.480,-16.602,-28.809,-22.461,0
1664549462.752,-38.086,-22.949,-20.996,-20.996,0
1664549462.756,-57.617,-26.855,-14.160,-49.316,0
1664549462.760,-64.453,-23.926,-29.297,-52.734,0
1664549462.764,-40.039,-16.602,-28.809,-20.996,0
1664549462.768,-33.203,-15.625,-4.883,0.977,0
1664549462.772,-53.711,-25.879,-12.207,-17.578,0
1664549462.775,-62.988,-23.926,-24.414,-20.508,0
1664549462.779,-50.293,-11.230,-9.766,-16.602,0
1664549462.783,-35.156,-17.090,-11.230,-24.414,0
1664549462.787,-42.480,-29.785,-19.043,-22.949,0
1664549462.791,-55.664,-24.902,-13.184,-34.180,0
1664549462.750,-49.805,-18.555,-15.625,-30.273,0
1664549462.754,-22.949,-19.043,-36.621,14.160,0
1664549462.758,-20.020,-20.508,-36.133,19.043,0
1664549462.762,-52.246,-22.949,-21.973,-26.855,0
1664549462.766,-60.547,-22.461,-19.043,-36.621,0
1664549462.770,-33.203,-27.832,-17.090,-1.953,0
1664549462.774,-23.438,-37.109,-32.715,9.277,0
1664549462.777,-50.781,-35.156,-40.039,-28.320,0
1664549462.781,-68.359,-27.344,-26.367,-62.012,0
1664549462.785,-37.598,-25.879,-25.391,-31.250,0
1664549462.789,-19.043,-29.297,-19.531,-5.371,0
1664549462.793,-44.434,-29.785,-19.043,-23.438,0
1664549462.752,-62.500,-25.391,-34.668,-55.176,0
1664549462.756,-58.105,-24.902,-38.574,-41.504,0
1664549462.760,-41.504,-27.344,-27.832,-18.066,0
1664549462.764,-49.316,-27.832,-29.297,-32.227,0
1664549462.768,-64.453,-28.809,-23.926,-51.270,0
1664549462.772,-57.129,-29.785,-27.832,-41.504,0
1664549462.776,-39.062,-30.273,-42.480,-10.742,0
1664549462.779,-43.457,-31.738,-26.367,-27.344,0
1664549462.783,-64.453,-27.832,-11.719,-52.734,0
1664549462.787,-63.965,-23.438,-9.277,-51.758,0
1664549462.791,-42.480,-20.996,-28.809,-26.855,0
1664549462.795,-33.691,-19.043,-29.297,-23.926,0
1664549462.753,-59.082,-25.879,-6.348,-49.805,0
1664549462.757,-66.895,-24.414,-19.531,-55.664,0
1664549462.761,-48.828,-20.508,-26.367,-35.645,0
1664549462.765,-38.574,-25.879,-19.531,-15.137,0
1664549462.769,-39.062,-25.391,-35.156,-22.949,0
1664549462.773,-51.758,-29.297,-41.992,-30.762,0
1664549462.777,-42.969,-28.809,-34.180,-23.926,0
1664549462.780,-25.391,-22.461,-34.668,-18.555,0
1664549462.784,-34.668,-22.949,-40.039,-18.066,0
1664549462.788,-50.293,-24.414,-31.250,-26.855,0
1664549462.792,-65.430,-21.973,-22.949,-36.133,0
1664549462.796,-56.152,-20.508,-21.484,-36.621,0
1664549462.758,-44.434,-24.414,-23.438,-33.203,0
1664549462.762,-58.105,-28.809,-47.363,-41.504,0
1664549462.766,-61.523,-25.391,-61.035,-43.945,0
1664549462.770,-38.086,-24.902,-37.598,-22.949,0
1664549462.774,-32.227,-29.785,-26.367,-12.695,0
1664549462.778,-60.547,-32.227,-42.480,-30.273,0
1664549462.782,-69.824,-30.762,-39.062,-52.246,0
1664549462.785,-54.199,-27.344,-22.461,-40.527,0
1664549462.789,-34.180,-31.250,-45.898,-8.301,0
1664549462.793,-43.945,-32.715,-54.688,-10.742,0
1664549462.797,-66.895,-26.367,-40.527,-40.039,0
1664549462.801,-53.223,-22.461,-39.551,-40.039,0
1664549462.806,-34.668,-21.973,-25.879,-20.508,0
1664549462.810,-34.668,-20.996,-21.973,-20.020,0
1664549462.814,-48.340,-19.531,-28.320,-41.016,0
1664549462.818,-45.410,-22.461,-46.387,-43.457,0
1664549462.822,-21.973,-23.438,-50.293,-8.789,0
1664549462.826,-21.484,-24.902,-53.223,5.859,0
1664549462.830,-51.758,-29.785,-41.992,-28.320,0
1664549462.833,-76.172,-33.691,-17.578,-53.223,0
1664549462.837,-55.664,-30.273,-25.391,-16.602,0
1664549462.841,-36.621,-27.832,-39.062,0.000,0
1664549462.845,-44.434,-24.902,-50.781,-26.367,0
1664549462.849,-45.898,-20.996,-45.898,-29.297,0
1664549462.847,-34.180,-21.973,-20.996,-14.160,0
1664549462.851,-22.949,-24.414,-13.672,1.953,0
1664549462.855,-39.551,-27.344,-31.250,-7.324,0
1664549462.859,-60.059,-26.367,-49.805,-23.926,0
1664549462.863,-59.570,-25.391,-30.762,-25.391,0
1664549462.867,-40.039,-29.297,-22.461,-14.160,0
1664549462.871,-43.457,-31.250,-21.484,-22.949,0
1664549462.874,-56.641,-35.645,-19.043,-40.039,0
1664549462.878,-55.176,-30.273,-27.344,-20.508,0
1664549462.882,-54.199,-19.043,-23.438,-8.301,0
1664549462.886,-40.527,-21.484,-29.297,-7.812,0
1664549462.890,-45.410,-27.832,-28.809,-26.855,0
1664549462.891,-66.406,-33.203,-26.855,-48.828,0
1664549462.895,-53.711,-33.691,-29.785,-29.297,0
1664549462.899,-36.133,-34.668,-19.531,-6.348,0
1664549462.903,-49.316,-29.785,-15.625,-18.555,0
1664549462.907,-63.477,-24.902,-18.555,-41.504,0
1664549462.911,-49.805,-27.344,-19.531,-25.391,0
1664549462.915,-22.461,-22.949,-25.391,-5.859,0
1664549462.918,-23.926,-22.461,-31.250,-6.836,0
1664549462.922,-50.781,-22.949,-39.551,-18.555,0
1664549462.926,-51.270,-22.461,-50.293,-25.391,0
1664549462.930,-29.785,-31.738,-28.809,-17.578,0
1664549462.934,-29.297,-35.645,-7.324,-32.227,0
1664549462.936,-53.223,-29.785,-12.207,-51.270,0
1664549462.940,-63.477,-27.344,-12.207,-54.199,0
1664549462.944,-40.527,-24.414,-20.996,-31.250,0
1664549462.948,-25.879,-19.531,-27.344,-14.160,0
1664549462.952,-36.621,-20.508,-28.809,-27.832,0
1664549462.956,-57.617,-27.344,-21.484,-38.086,0
1664549462.960,-47.363,-30.273,-3.418,-29.785,0
1664549462.963,-30.762,-31.738,-21.484,-11.230,0
1664549462.967,-54.199,-28.809,-40.039,-40.039,0
1664549462.971,-65.918,-26.367,-21.484,-71.777,0
1664549462.975,-45.410,-22.461,-16.602,-34.668,0
1664549462.979,-20.020,-21.484,-34.180,9.766,0
1664549462.982,-32.227,-28.809,-24.902,-10.742,0
1664549462.986,-48.340,-26.855,-7.812,-36.133,0
1664549462.990,-31.250,-21.484,-6.836,-24.414,0
1664549462.994,-25.391,-27.344,-2.441,-16.602,0
1664549462.998,-32.715,-29.785,-4.395,-28.320,0
1664549463.002,-27.832,-25.391,-15.137,-26.855,0
1664549463.006,-24.902,-27.344,-21.973,0.488,0
1664549463.009,-19.043,-28.320,-16.602,16.113,0
1664549463.013,-7.812,-26.367,-7.812,-3.906,0
1664549463.017,-23.438,-32.227,-6.348,-13.672,0
1664549463.021,-49.316,-39.062,-8.789,-21.973,0
1664549463.025,-35.645,-40.527,-24.902,-12.695,0
1664549463.027,-19.043,-40.039,-13.184,10.254,0
1664549463.031,-28.320,-38.086,20.508,4.883,0
1664549463.035,-43.945,-40.527,20.996,-20.020,0
1664549463.039,-37.598,-49.316,2.930,-20.508,0
1664549463.043,-25.391,-46.875,-5.859,4.395,0
1664549463.047,-26.855,-46.387,-1.465,7.324,0
1664549463.051,-41.992,-44.922,-1.953,7.324,0
1664549463.054,-59.082,-41.016,-1.953,-17.578,0
1664549463.058,-46.875,-45.410,3.418,-29.297,0
1664549463.062,-39.551,-46.387,1.465,-13.672,0
1664549463.066,-51.758,-40.039,-10.742,-26.367,0
1664549463.070,-51.270,-36.621,-12.695,-33.691,0
1664549463.071,-37.109,-38.086,0.000,-4.395,0
1664549463.075,-33.203,-37.598,1.465,0.488,0
1664549463.079,-44.922,-37.598,-10.742,-20.508,0
1664549463.083,-56.152,-34.180,-13.184,-39.062,0
1664549463.087,-43.457,-29.297,-16.113,-27.832,0
1664549463.091,-18.555,-28.320,-31.250,26.367,0
1664549463.095,-32.227,-30.762,-11.230,7.324,0
1664549463.098,-62.988,-34.180,-2.441,-41.016,0
1664549463.102,-59.082,-30.273,-14.648,-31.250,0
1664549463.106,-37.598,-30.762,-2.441,-13.672,0
1664549463.110,-36.621,-29.785,-11.719,-15.137,0
1664549463.114,-55.176,-20.996,-28.320,-34.180,0
1664549463.132,-57.617,-21.973,-5.859,-38.574,0
1664549463.136,-39.551,-29.785,0.000,-25.391,0
1664549463.140,-33.203,-27.832,-11.230,-15.137,0
1664549463.144,-50.781,-22.461,-23.926,-20.508,0
1664549463.148,-57.617,-20.508,-35.645,-15.625,0
1664549463.152,-45.898,-30.762,-25.879,2.930,0
1664549463.156,-40.039,-31.738,-13.672,-1.953,0
1664549463.159,-53.223,-25.391,-4.883,-29.297,0
1664549463.163,-60.059,-31.250,-1.953,-42.969,0
1664549463.167,-49.805,-35.156,-12.695,-31.738,0
1664549463.171,-39.062,-37.109,-18.066,-29.785,0
1664549463.175,-38.086,-30.273,-18.066,-22.949,0
1664549463.177,-51.758,-21.973,-24.414,-18.555,0
1664549463.181,-53.223,-20.020,-11.230,-20.996,0
1664549463.185,-34.180,-24.902,-18.555,-11.230,0
1664549463.189,-37.598,-31.250,-40.039,-3.906,0
1664549463.193,-58.594,-26.367,-21.484,-19.531,0
1664549463.197,-69.336,-22.949,-6.836,-44.922,0
1664549463.201,-51.758,-20.996,-11.719,-25.879,0
1664549463.204,-41.016,-24.414,-15.625,-7.324,0
1664549463.208,-56.641,-34.180,-34.180,-8.301,0
1664549463.212,-63.477,-34.180,-49.805,-11.719,0
1664549463.216,-42.480,-30.273,-41.992,-11.719,0
1664549463.220,-26.367,-32.227,-26.855,2.441,0
1664549463.222,-59.570,-38.086,-9.277,-27.344,0
1664549463.226,-81.055,-39.062,-9.766,-55.176,0
1664549463.230,-56.152,-36.621,-27.344,-28.809,0
1664549463.234,-37.109,-38.574,-31.250,1.953,0
1664549463.238,-41.016,-36.621,-25.391,-1.465,0
1664549463.242,-55.176,-34.180,-28.809,-26.367,0
1664549463.246,-58.105,-30.762,-28.320,-39.551,0
1664549463.249,-34.668,-30.273,-32.227,-7.812,0
1664549463.253,-31.250,-37.109,-25.879,12.695,0
1664549463.257,-53.711,-37.109,-10.254,-24.414,0
1664549463.261,-55.176,-33.203,-20.996,-27.832,0
1664549463.265,-40.039,-35.645,-25.391,4.395,0
1664549463.267,-31.250,-37.598,-13.184,12.207,0
1664549463.271,-39.551,-32.715,-14.160,-12.207,0
1664549463.275,-46.875,-31.738,-19.043,-28.809,0
1664549463.279,-34.180,-26.855,-28.809,-15.137,0
1664549463.283,-23.438,-25.391,-18.066,-8.789,0
1664549463.287,-22.461,-25.879,-6.836,-13.672,0
1664549463.291,-36.621,-28.809,-16.602,-34.180,0
1664549463.294,-40.527,-36.621,-5.859,-20.020,0
1664549463.298,-28.809,-32.715,-7.324,5.859,0
1664549463.302,-33.691,-29.785,-17.578,-12.695,0
1664549463.306,-37.598,-26.855,-11.719,-27.344,0
1664549463.310,-28.320,-26.367,-9.277,-24.902,0
1664549463.312,-36.133,-29.297,-18.555,-9.277,0
1664549463.316,-40.039,-28.320,-24.414,-2.930,0
1664549463.320,-49.316,-26.855,-14.160,-18.066,0
1664549463.324,-61.523,-29.785,-4.395,-35.645,0
1664549463.328,-49.316,-31.738,-3.418,-32.715,0
1664549463.332,-27.832,-25.391,-20.996,-12.207,0
1664549463.336,-32.227,-21.484,-21.973,-15.625,0
1664549463.339,-60.059,-28.809,-14.160,-23.438,0
1664549463.343,-65.918,-32.715,-8.789,-37.598,0
1664549463.347,-48.828,-33.203,-10.742,-37.109,0
1664549463.351,-48.828,-33.203,-31.250,-25.391,0
1664549463.355,-68.359,-36.621,-31.738,-45.898,0
1664549463.357,-69.824,-35.645,-6.348,-50.781,0
1664549463.361,-44.434,-28.320,-6.348,-28.809,0
1664549463.365,-36.621,-29.785,-20.020,-28.320,0
1664549463.369,-63.965,-33.691,-15.137,-52.734,0
1664549463.373,-74.219,-33.691,-16.602,-62.500,0
1664549463.377,-57.129,-33.203,-33.203,-33.203,0
1664549463.381,-39.551,-30.762,-37.109,8.301,0
1664549463.384,-52.734,-30.273,-20.508,-0.977,0
1664549463.388,-71.777,-30.762,-15.137,-52.246,0
1664549463.392,-54.688,-32.715,-20.020,-54.199,0
1664549463.396,-45.898,-38.574,-28.320,-30.762,0
1664549463.400,-57.129,-34.180,-41.504,-36.621,0
1664549463.402,-68.359,-26.855,-36.133,-51.758,0
1664549463.406,-63.477,-26.855,-24.902,-34.180,0
1664549463.410,-47.852,-32.227,-14.160,-15.625,0
1664549463.414,-50.781,-35.156,-19.531,-36.133,0
1664549463.418,-64.453,-32.715,-36.621,-51.758,0
1664549463.422,-60.547,-31.738,-28.320,-26.855,0
1664549463.426,-47.363,-30.273,-29.785,-1.465,0
1664549463.429,-50.293,-30.273,-33.691,-10.254,0
1664549463.433,-66.895,-34.180,-24.414,-38.574,0
1664549463.437,-67.383,-28.320,-23.926,-58.105,0
1664549463.441,-44.434,-31.250,-23.438,-40.039,0
1664549463.445,-32.715,-28.320,-18.555,-22.949,0
1664549463.462,-45.410,-17.578,-22.461,-31.738,0
1664549463.466,-61.523,-16.113,-22.949,-43.457,0
1664549463.470,-51.758,-20.020,-23.926,-34.668,0
1664549463.474,-36.133,-22.949,-30.273,-27.344,0
1664549463.478,-43.945,-21.484,-20.508,-42.480,0
1664549463.482,-51.270,-27.832,-8.789,-29.785,0
1664549463.486,-35.645,-30.762,-2.930,-1.465,0
1664549463.489,-26.855,-28.809,-5.371,0.488,0
1664549463.493,-51.758,-21.973,-15.625,-31.250,0
1664549463.497,-80.078,-12.207,-27.344,-69.336,0
1664549463.501,-94.727,-12.207,-35.645,-86.914,0
1664549463.505,-91.797,-17.090,-34.180,-86.426,0
1664549463.507,-90.820,-20.996,-45.898,-79.102,0
1664549463.511,-119.629,-20.508,-56.152,-106.445,0
1664549463.515,-140.625,-16.602,-60.547,-131.836,0
1664549463.519,-133.789,-13.184,-56.152,-114.746,0
1664549463.523,-115.723,-10.742,-49.805,-99.609,0
1664549463.527,-117.188,-12.695,-56.152,-108.887,0
1664549463.531,-134.277,-15.625,-57.129,-136.719,0
1664549463.534,-129.883,-13.184,-59.570,-137.695,0
1664549463.538,-109.375,-16.602,-61.035,-99.121,0
1664549463.542,-113.770,-17.090,-59.570,-91.797,0
1664549463.546,-128.906,-15.625,-54.688,-126.465,0
1664549463.550,-115.234,-18.066,-51.758,-119.141,0
1664549463.552,-82.520,-19.043,-53.711,-78.125,0
1664549463.556,-72.754,-16.113,-61.035,-64.941,0
1664549463.560,-88.867,-17.578,-68.848,-83.984,0
1664549463.564,-88.379,-15.625,-63.477,-87.891,0
1664549463.568,-58.594,-7.812,-50.781,-49.805,0
1664549463.572,-47.363,-10.254,-57.617,-27.832,0
1664549463.576,-69.336,-18.555,-58.105,-50.293,0
1664549463.579,-89.844,-22.461,-45.898,-75.684,0
1664549463.583,-74.707,-22.461,-41.016,-50.293,0
1664549463.587,-53.223,-20.020,-35.645,-30.762,0
1664549463.591,-65.918,-14.648,-41.504,-63.477,0
1664549463.595,-89.355,-19.043,-48.828,-74.219,0
1664549463.597,-81.543,-22.949,-35.156,-60.059,0
1664549463.601,-49.805,-20.996,-38.086,-34.668,0
1664549463.605,-51.758,-20.508,-40.039,-30.762,0
1664549463.609,-73.242,-15.137,-21.973,-46.387,0
1664549463.613,-62.988,-14.160,-26.367,-42.969,0
1664549463.617,-40.039,-19.043,-41.016,-25.391,0
1664549463.621,-34.668,-16.113,-35.156,-14.648,0
1664549463.624,-51.270,-19.531,-41.992,-32.227,0
1664549463.628,-60.059,-20.020,-45.898,-32.715,0
1664549463.632,-49.316,-11.719,-27.832,-25.879,0
1664549463.636,-40.039,-14.160,-35.645,-31.738,0
1664549463.640,-39.062,-13.184,-47.363,-31.738,0
1664549463.654,-46.875,-11.719,-33.203,-37.598,0
1664549463.658,-37.598,-15.137,-26.367,-29.785,0
1664549463.662,-19.043,-17.090,-33.691,-4.395,0
1664549463.666,-31.250,-19.531,-30.762,-11.719,0
1664549463.670,-51.270,-19.043,-23.926,-37.598,0
1664549463.674,-43.457,-18.555,-19.531,-24.414,0
1664549463.678,-27.832,-20.020,-29.297,-4.395,0
1664549463.681,-31.738,-26.367,-28.809,7.812,0
1664549463.685,-59.570,-23.438,-19.043,-15.137,0
1664549463.689,-63.965,-21.973,-32.227,-43.457,0
1664549463.693,-38.086,-32.227,-37.109,-15.625,0
1664549463.697,-37.109,-26.855,-16.602,-6.348,0
1664549463.687,-61.523,-21.484,-18.555,-36.621,0
1664549463.691,-70.801,-20.996,-43.945,-49.805,0
1664549463.695,-51.270,-17.578,-50.781,-22.461,0
1664549463.699,-38.086,-21.973,-38.574,-6.348,0
1664549463.703,-53.711,-25.391,-13.184,-28.809,0
1664549463.707,-70.312,-25.391,-14.648,-47.363,0
1664549463.711,-57.617,-28.809,-28.320,-38.574,0
1664549463.714,-43.457,-33.203,-27.344,-20.020,0
1664549463.718,-55.176,-31.250,-21.484,-33.203,0
1664549463.722,-63.965,-28.320,-25.879,-49.805,0
1664549463.726,-46.875,-21.973,-35.156,-31.738,0
1664549463.730,-24.902,-21.973,-29.785,-11.230,0
1664549463.732,-33.203,-28.320,-23.438,-18.555,0
1664549463.736,-50.781,-23.926,-34.668,-43.457,0
1664549463.740,-44.434,-17.090,-37.109,-35.645,0
1664549463.744,-30.273,-23.438,-29.297,-3.906,0
1664549463.748,-33.203,-27.832,-29.297,-2.930,0
1664549463.752,-49.316,-23.926,-24.902,-32.715,0
1664549463.756,-52.246,-16.602,-26.367,-29.785,0
1664549463.759,-38.574,-17.578,-28.809,-9.766,0
1664549463.763,-24.902,-20.996,-20.508,-23.926,0
1664549463.767,-33.691,-18.555,-27.832,-35.156,0
1664549463.771,-43.457,-22.461,-40.039,-46.387,0
1664549463.775,-33.691,-22.461,-39.551,-35.156,0
1664549463.777,-14.648,-19.531,-27.832,-8.789,0
1664549463.781,-19.531,-17.090,-25.391,-8.789,0
1664549463.785,-51.270,-22.949,-24.414,-38.086,0
1664549463.789,-56.641,-31.250,-13.184,-48.828,0
1664549463.793,-33.691,-27.832,-10.742,-20.508,0
1664549463.797,-26.367,-21.484,-22.461,-10.254,0
1664549463.801,-47.852,-14.160,-25.391,-22.949,0
1664549463.804,-58.105,-16.602,-22.461,-35.156,0
1664549463.808,-36.133,-23.926,-39.551,-26.367,0
1664549463.812,-24.414,-23.926,-40.039,-21.484,0
1664549463.816,-37.109,-20.020,-24.414,-33.203,0
1664549463.820,-48.340,-24.902,-13.184,-41.016,0
1664549463.821,-38.574,-29.785,-6.836,-38.574,0
1664549463.825,-25.879,-26.855,-15.625,-32.715,0
1664549463.829,-37.109,-27.832,-20.020,-41.504,0
1664549463.833,-61.523,-32.227,-29.297,-58.594,0
1664549463.837,-57.617,-33.691,-17.090,-48.340,0
1664549463.841,-29.785,-27.344,-18.555,-4.395,0
1664549463.845,-30.762,-20.020,-36.621,-4.883,0
1664549463.848,-58.594,-23.926,-20.020,-48.828,0
1664549463.852,-58.594,-24.414,-8.301,-47.852,0
1664549463.856,-36.621,-17.578,-13.672,-12.695,0
1664549463.860,-36.621,-19.043,-12.207,-6.836,0
1664549463.864,-53.223,-23.438,-14.160,-24.902,0
1664549463.882,-55.176,-22.461,-23.926,-28.809,0
1664549463.886,-37.598,-21.484,-24.414,-12.695,0
1664549463.890,-32.715,-22.949,-20.020,-6.348,0
1664549463.894,-50.293,-21.484,-11.719,-28.320,0
1664549463.898,-55.664,-21.973,-21.484,-44.434,0
1664549463.902,-39.551,-20.508,-26.367,-25.879,0
1664549463.906,-30.762,-19.531,-17.090,-1.953,0
1664549463.909,-48.340,-24.414,-11.230,-28.320,0
1664549463.913,-61.035,-30.273,-13.672,-52.246,0
1664549463.917,-45.410,-26.367,-28.320,-22.949,0
1664549463.921,-23.926,-14.160,-21.973,-10.254,0
1664549463.925,-27.344,-16.602,-19.531,-13.184,0
1664549463.927,-49.316,-24.902,-16.602,-28.320,0
1664549463.931,-45.898,-20.996,-7.812,-37.109,0
1664549463.935,-29.785,-20.508,-21.973,-18.066,0
1664549463.939,-28.809,-23.438,-26.367,-8.789,0
1664549463.943,-38.086,-16.113,-11.719,-16.113,0
1664549463.947,-48.340,-12.207,-21.484,-13.672,0
1664549463.951,-32.715,-16.602,-24.902,1.953,0
1664549463.954,-19.043,-13.672,-20.020,-2.441,0
1664549463.958,-45.410,-19.531,-31.738,-10.254,0
1664549463.962,-57.617,-22.949,-18.555,-20.020,0
1664549463.966,-40.039,-19.043,-6.348,-37.598,0
1664549463.970,-30.273,-20.020,-18.066,-23.926,0
1664549463.972,-48.340,-20.996,-29.297,-24.414,0
1664549463.976,-62.988,-13.672,-30.762,-36.621,0
1664549463.980,-51.758,-11.230,-27.344,-21.973,0
1664549463.984,-34.180,-18.066,-18.555,0.488,0
1664549463.988,-36.621,-21.973,-5.859,-5.371,0
1664549463.992,-53.223,-21.484,-8.301,-28.809,0
1664549463.996,-55.176,-23.438,-10.254,-32.227,0
1664549463.999,-40.527,-29.297,-11.719,-18.066,0
1664549464.003,-36.133,-25.391,-29.297,-13.672,0
1664549464.007,-59.570,-20.020,-20.020,-44.922,0
1664549464.011,-66.406,-19.531,-12.695,-66.406,0
1664549464.015,-47.852,-13.184,-23.926,-29.297,0
1664549464.017,-31.738,-13.672,-23.926,-1.953,0
1664549464.021,-42.969,-18.555,-27.832,-23.926,0
1664549464.025,-53.223,-17.090,-29.785,-38.574,0
1664549464.029,-33.691,-13.184,-20.996,-18.066,0
1664549464.033,-20.996,-17.578,-13.672,-3.418,0
1664549464.037,-26.855,-18.066,-10.254,-11.230,0
1664549464.041,-42.480,-15.137,-20.020,-30.273,0
1664549464.044,-40.527,-17.578,-41.016,-13.184,0
1664549464.048,-28.809,-17.578,-38.086,2.441,0
1664549464.052,-35.156,-17.578,-23.926,-21.973,0
1664549464.056,-50.293,-20.508,-23.926,-41.992,0
1664549464.060,-52.734,-20.020,-18.066,-52.734,0
1664549464.062,-35.156,-20.020,-12.207,-23.926,0
1664549464.066,-28.320,-19.531,-19.531,-6.348,0
1664549464.070,-43.457,-18.066,-40.527,-26.855,0
1664549464.074,-58.594,-20.020,-28.809,-42.480,0
1664549464.078,-50.293,-25.879,-10.254,-33.203,0
1664549464.082,-30.273,-22.461,-34.668,-11.230,0
1664549464.086,-41.016,-17.578,-45.410,-20.020,0
1664549464.089,-62.500,-20.508,-22.461,-30.273,0
1664549464.093,-56.152,-20.508,-20.020,-24.902,0
1664549464.097,-38.574,-25.391,-32.715,-6.348,0
1664549464.101,-30.762,-24.902,-30.762,-11.719,0
1664549464.105,-47.852,-24.902,-22.461,-39.062,0
1664549464.108,-52.734,-29.297,-22.949,-43.457,0
1664549464.112,-28.320,-28.809,-22.461,-25.879,0
1664549464.116,-26.855,-27.832,-41.992,-20.020,0
1664549464.120,-48.340,-26.367,-32.227,-30.762,0
1664549464.124,-52.246,-26.367,-17.090,-29.785,0
1664549464.128,-38.086,-31.738,-37.109,-12.695,0
1664549464.132,-25.879,-31.250,-33.203,18.555,0
1664549464.135,-40.039,-25.879,-19.531,4.395,0
1664549464.139,-52.734,-24.414,-19.531,-41.504,0
1664549464.143,-37.109,-19.043,-24.414,-27.832,0
1664549464.147,-25.391,-20.508,-16.602,-4.883,0
1664549464.151,-35.156,-25.391,-20.996,-31.250,0
1664549464.152,-51.758,-20.020,-34.180,-55.176,0
1664549464.156,-37.598,-13.184,-31.738,-32.715,0
1664549464.160,-16.113,-18.555,-33.691,-2.930,0
1664549464.164,-29.785,-24.414,-29.297,-5.859,0
1664549464.168,-54.199,-25.391,-5.371,-26.367,0
1664549464.172,-40.039,-32.227,-6.836,-15.137,0
1664549464.176,-27.344,-32.715,-14.160,11.230,0
1664549464.179,-46.875,-25.879,-16.602,-24.414,0
1664549464.183,-64.453,-19.043,-20.020,-64.941,0
1664549464.187,-66.406,-18.555,-36.621,-64.941,0
1664549464.191,-54.688,-13.672,-37.109,-41.504,0
1664549464.195,-48.340,-14.160,-19.531,-25.879,0
1664549464.197,-54.688,-19.531,-20.996,-36.621,0
1664549464.201,-56.152,-15.137,-37.109,-47.852,0
1664549464.205,-48.340,-15.625,-38.574,-36.133,0
1664549464.209,-31.250,-22.949,-10.742,-26.367,0
1664549464.213,-34.668,-26.367,-5.859,-35.645,0
1664549464.217,-59.570,-26.855,-9.277,-43.457,0
1664549464.221,-59.082,-27.344,-20.020,-32.715,0
1664549464.224,-32.227,-29.297,-30.273,-20.508,0
1664549464.228,-34.180,-31.738,-21.973,-32.715,0
1664549464.232,-54.688,-33.203,-19.531,-36.621,0
1664549464.236,-54.688,-22.949,-26.367,-35.645,0
1664549464.240,-45.410,-19.531,-35.645,-17.090,0
1664549464.257,-44.922,-26.367,-28.320,-0.488,0
1664549464.261,-53.223,-30.762,-12.207,-24.414,0
1664549464.265,-64.453,-28.320,-7.324,-51.270,0
1664549464.269,-56.641,-23.926,-17.090,-42.969,0
1664549464.273,-34.180,-25.879,-20.996,-16.113,0
1664549464.277,-43.945,-30.762,-22.949,-18.555,0
1664549464.281,-67.871,-31.250,-18.555,-45.410,0
1664549464.284,-65.430,-34.668,-4.883,-45.410,0
1664549464.288,-40.527,-36.621,-21.973,-10.742,0
1664549464.292,-42.480,-25.879,-46.387,-1.465,0
1664549464.296,-68.848,-25.391,-25.879,-45.898,0
1664549464.300,-59.570,-32.715,-14.160,-53.711,0
1664549464.303,-40.039,-32.715,-19.043,-28.320,0
1664549464.307,-48.340,-32.227,-19.531,-29.785,0
1664549464.311,-63.477,-31.738,-18.555,-46.875,0
1664549464.315,-56.152,-30.762,-17.090,-42.969,0
1664549464.319,-38.574,-31.738,-17.090,-20.020,0
1664549464.323,-24.414,-31.250,-15.137,-16.602,0
1664549464.327,-29.297,-23.438,-37.109,-34.180,0
1664549464.330,-47.852,-25.391,-41.016,-40.039,0
1664549464.334,-36.621,-29.297,-13.672,-6.348,0
1664549464.338,-30.273,-28.809,3.418,-1.953,0
1664549464.342,-45.898,-27.832,1.465,-42.480,0
1664549464.346,-55.664,-24.414,-16.113,-48.828,0
1664549464.347,-50.781,-25.391,-18.555,-32.715,0
1664549464.351,-34.668,-28.320,-13.184,-17.578,0
1664549464.355,-29.297,-25.391,-11.719,-23.438,0
1664549464.359,-44.434,-22.949,-22.949,-41.992,0
1664549464.363,-48.340,-21.973,-23.438,-33.203,0
1664549464.367,-25.391,-18.555,-21.484,-2.930,0
1664549464.371,-29.785,-18.555,-28.320,-8.301,0
1664549464.374,-63.477,-24.902,-23.438,-37.598,0
1664549464.378,-64.941,-26.855,-13.184,-26.855,0
1664549464.382,-47.852,-27.832,-30.273,-10.254,0
1664549464.386,-35.156,-25.391,-34.668,-10.742,0
1664549464.390,-46.387,-24.902,-23.438,-23.926,0
1664549464.392,-52.246,-24.414,-25.879,-46.387,0
1664549464.396,-37.109,-15.625,-28.320,-39.551,0
1664549464.400,-23.926,-10.742,-35.156,-5.371,0
1664549464.404,-19.531,-8.301,-25.879,-4.395,0
1664549464.408,-41.504,-15.137,-14.648,-33.691,0
1664549464.412,-45.410,-29.297,-26.855,-28.320,0
1664549464.416,-26.855,-36.621,-26.367,-4.395,0
1664549464.419,-31.250,-35.156,-35.645,0.977,0
1664549464.423,-48.828,-31.250,-42.480,-23.926,0
1664549464.427,-47.852,-23.926,-29.297,-51.270,0
1664549464.431,-19.531,-17.090,-30.762,-25.879,0
1664549464.435,-19.531,-21.973,-28.809,-17.090,0
1664549464.437,-45.898,-28.809,-30.762,-36.133,0
1664549464.441,-49.805,-25.391,-34.668,-48.828,0
1664549464.445,-23.438,-22.949,-26.855,-31.250,0
1664549464.449,-19.043,-21.484,-19.531,-10.254,0
1664549464.453,-40.527,-17.578,-26.367,-18.066,0
1664549464.457,-53.711,-17.090,-27.832,-29.785,0
1664549464.461,-45.898,-25.391,-34.668,-20.996,0
1664549464.464,-35.645,-34.668,-53.223,4.883,0
1664549464.468,-47.852,-31.250,-38.086,-14.648,0
1664549464.472,-62.500,-24.902,-20.996,-59.082,0
1664549464.476,-60.059,-21.484,-27.832,-50.293,0
1664549464.480,-38.574,-19.043,-28.809,-21.973,0
1664549464.482,-33.691,-21.973,-27.832,-24.414,0
1664549464.486,-52.246,-23.438,-35.645,-43.457,0
1664549464.490,-65.430,-20.508,-40.527,-52.734,0
1664549464.494,-50.293,-20.020,-41.504,-46.387,0
1664549464.498,-24.902,-17.090,-43.457,-29.297,0
1664549464.502,-44.434,-20.020,-40.039,-38.574,0
1664549464.506,-58.105,-26.855,-43.457,-30.762,0
1664549464.509,-33.203,-25.391,-41.016,-8.301,0
1664549464.513,-17.578,-27.832,-44.434,-23.926,0
1664549464.517,-22.461,-30.762,-54.199,-33.203,0
1664549464.521,-34.180,-15.625,-43.945,-36.133,0
1664549464.525,-29.785,-9.277,-38.574,-26.367,0
1664549464.527,-9.766,-16.602,-41.992,-6.836,0
1664549464.531,-14.160,-13.672,-36.133,-7.324,0
1664549464.535,-32.227,-17.090,-25.391,-38.086,0
1664549464.539,-33.203,-20.996,-27.832,-42.480,0
1664549464.543,-17.578,-15.625,-35.645,-13.184,0
1664549464.547,-16.602,-15.137,-37.109,-5.859,0
1664549464.551,-43.945,-23.438,-39.062,-17.578,0
1664549464.554,-50.293,-25.879,-40.527,-41.504,0
1664549464.558,-27.344,-24.414,-39.551,-31.738,0
1664549464.562,-17.578,-27.344,-39.062,-14.648,0
1664549464.566,-35.645,-25.879,-40.527,-30.273,0
1664549464.570,-45.410,-19.531,-50.293,-45.410,0
1664549464.572,-40.039,-20.996,-53.223,-38.574,0
1664549464.576,-20.020,-16.602,-33.203,-9.277,0
1664549464.580,-20.020,-12.695,-20.996,-11.230,0
1664549464.584,-41.992,-15.625,-41.016,-36.621,0
1664549464.588,-38.086,-21.973,-42.480,-37.598,0
1664549464.592,-12.207,-25.879,-30.762,-8.301,0
1664549464.596,-17.090,-25.879,-32.715,-12.695,0
1664549464.599,-47.363,-27.344,-41.992,-41.504,0
1664549464.603,-40.527,-29.785,-52.246,-35.156,0
1664549464.607,-13.184,-25.391,-57.617,6.348,0
1664549464.611,-10.254,-15.137,-50.293,9.766,0
1664549464.615,-29.297,-15.137,-45.410,-30.273,0
1664549464.632,-35.645,-24.902,-33.691,-38.574,0
1664549464.636,-22.949,-30.273,-27.344,-15.137,0
1664549464.640,-13.184,-23.438,-27.832,-1.953,0
1664549464.644,-20.508,-20.996,-32.227,-24.414,0
1664549464.648,-44.922,-27.832,-41.504,-41.504,0
1664549464.652,-41.016,-27.344,-47.852,-17.090,0
1664549464.656,-27.832,-24.414,-50.293,-5.371,0
1664549464.659,-34.180,-25.879,-42.480,-19.043,0
1664549464.663,-44.922,-20.508,-32.227,-24.414,0
1664549464.667,-45.410,-16.113,-38.574,-24.902,0
1664549464.671,-32.715,-20.020,-43.945,-27.832,0
1664549464.675,-30.762,-20.996,-50.293,-20.996,0
1664549464.677,-50.293,-23.438,-44.434,-40.039,0
1664549464.681,-51.758,-29.297,-35.156,-59.082,0
1664549464.685,-32.715,-23.438,-30.762,-32.715,0
1664549464.689,-26.367,-17.578,-33.203,-27.832,0
1664549464.693,-46.387,-19.043,-42.969,-57.129,0
1664549464.697,-58.105,-24.414,-63.477,-55.176,0
1664549464.701,-42.969,-31.738,-60.547,-22.461,0
1664549464.704,-29.297,-28.809,-36.621,-14.160,0
1664549464.708,-34.180,-21.484,-38.574,-20.508,0
1664549464.712,-56.641,-24.414,-41.504,-35.645,0
1664549464.716,-56.641,-30.273,-30.762,-55.664,0
1664549464.720,-32.715,-27.344,-31.250,-22.949,0
1664549464.722,-27.832,-24.902,-40.039,-10.254,0
1664549464.726,-45.410,-22.461,-39.062,-40.039,0
1664549464.730,-51.758,-25.879,-39.551,-50.781,0
1664549464.734,-23.438,-27.344,-39.551,-28.809,0
1664549464.738,-20.508,-23.438,-28.809,-12.695,0
1664549464.742,-51.270,-23.438,-29.785,-20.996,0
1664549464.746,-53.223,-19.531,-25.391,-26.367,0
1664549464.749,-35.645,-21.973,-28.320,-17.090,0
1664549464.753,-30.762,-27.344,-36.621,-6.836,0
1664549464.757,-52.246,-21.973,-25.391,-35.645,0
1664549464.761,-62.500,-20.020,-27.344,-58.105,0
1664549464.765,-49.805,-18.555,-39.551,-33.691,0
1664549464.768,-35.156,-18.555,-39.062,-6.836,0
1664549464.772,-43.457,-22.461,-31.250,-23.926,0
1664549464.776,-64.453,-28.809,-34.180,-50.293,0
1664549464.780,-52.734,-32.227,-41.504,-36.621,0
1664549464.784,-31.250,-28.320,-27.344,-8.789,0
1664549464.788,-38.086,-20.508,-18.555,-9.766,0
1664549464.792,-58.594,-23.438,-27.344,-33.203,0
1664549464.795,-59.082,-31.738,-29.297,-22.461,0
1664549464.799,-40.527,-31.738,-40.039,6.348,0
1664549464.803,-34.668,-25.879,-39.062,-11.719,0
1664549464.807,-46.387,-23.926,-19.043,-33.203,0
1664549464.811,-53.711,-31.250,-13.184,-44.922,0
1664549464.812,-37.598,-28.320,-20.996,-31.738,0
1664549464.816,-16.602,-24.414,-25.391,-3.418,0
1664549464.820,-37.109,-31.250,-24.902,-21.484,0
1664549464.824,-61.523,-32.715,-15.137,-48.340,0
1664549464.828,-50.293,-31.738,-11.230,-40.527,0
1664549464.832,-35.156,-25.391,-17.090,-18.066,0
1664549464.836,-40.039,-26.367,-24.902,-17.090,0
1664549464.839,-63.477,-32.715,-37.109,-25.391,0
1664549464.843,-62.012,-30.273,-34.668,-32.715,0
1664549464.847,-30.273,-24.414,-28.809,-12.207,0
1664549464.851,-30.273,-22.949,-32.715,0.000,0
1664549464.855,-50.293,-25.879,-22.949,-23.926,0
1664549464.857,-48.340,-18.555,-21.484,-38.086,0
1664549464.861,-32.715,-13.672,-22.461,-20.508,0
1664549464.865,-25.391,-20.508,-19.043,-13.184,0
1664549464.869,-50.781,-31.250,-19.531,-39.551,0
1664549464.873,-55.664,-25.879,-13.184,-49.805,0
1664549464.877,-29.297,-21.484,-17.578,-18.066,0
1664549464.881,-22.949,-30.273,-34.668,12.207,0
1664549464.884,-42.480,-31.738,-38.574,0.488,0
1664549464.888,-69.824,-33.203,-28.809,-42.480,0
1664549464.892,-58.594,-31.738,-26.367,-47.363,0
1664549464.896,-20.996,-26.367,-12.207,-18.555,0
1664549464.900,-33.203,-26.367,-13.672,-27.344,0
1664549464.902,-56.641,-26.855,-17.090,-60.059,0
1664549464.906,-33.203,-19.531,-33.691,-36.621,0
1664549464.910,-20.996,-17.578,-44.922,-3.418,0
1664549464.914,-31.250,-19.043,-16.602,-14.160,0
1664549464.918,-49.805,-16.602,-15.137,-42.969,0
1664549464.922,-50.293,-16.113,-33.691,-34.180,0
1664549464.926,-27.832,-16.113,-33.203,3.906,0
1664549464.929,-23.926,-19.531,-24.414,-11.719,0
1664549464.933,-47.852,-24.414,-20.996,-46.875,0
1664549464.937,-52.246,-29.297,-18.555,-44.434,0
1664549464.941,-37.598,-28.320,-21.484,-26.855,0
1664549464.945,-29.785,-22.461,-34.668,-21.973,0
1664549464.947,-36.621,-20.996,-42.480,-26.367,0
1664549464.951,-56.641,-23.438,-34.668,-37.598,0
1664549464.955,-52.734,-21.973,-28.320,-36.133,0
1664549464.959,-36.133,-24.414,-19.043,-18.555,0
1664549464.963,-38.574,-25.879,-33.691,-20.020,0
1664549464.967,-46.387,-23.926,-56.152,-15.137,0
1664549464.971,-52.734,-32.227,-35.645,-10.742,0
1664549464.974,-44.922,-37.598,-15.625,-27.344,0
1664549464.978,-43.457,-33.691,-10.254,-41.992,0
1664549464.982,-61.035,-30.273,-16.602,-58.105,0
1664549464.986,-62.500,-23.926,-25.391,-60.059,0
1664549464.990,-41.992,-20.020,-18.555,-36.133,0
1664549465.007,-27.832,-21.973,-25.879,-13.184,0
1664549465.011,-41.016,-24.902,-41.504,-22.461,0
1664549465.015,-53.223,-21.973,-33.691,-39.062,0
1664549465.019,-28.809,-21.484,-22.461,-26.367,0
1664549465.023,-10.742,-23.926,-29.297,-13.184,0
1664549465.027,-19.043,-24.414,-34.668,-25.391,0
1664549465.031,-51.270,-29.785,-32.227,-62.500,0
1664549465.034,-57.617,-31.738,-28.809,-68.359,0
1664549465.038,-31.250,-31.250,-32.715,-26.855,0
1664549465.042,-36.133,-32.227,-37.598,-12.207,0
1664549465.046,-56.641,-29.785,-35.156,-42.969,0
1664549465.050,-54.688,-29.297,-39.551,-47.852,0
1664549465.053,-35.645,-33.203,-52.734,-18.555,0
1664549465.057,-31.250,-32.715,-48.828,-16.113,0
1664549465.061,-51.758,-29.297,-25.391,-44.434,0
1664549465.065,-54.199,-27.344,-24.414,-43.945,0
1664549465.069,-36.133,-29.785,-36.621,-14.648,0
1664549465.073,-35.156,-33.203,-26.367,-7.812,0
1664549465.077,-43.945,-27.832,-29.297,-22.949,0
1664549465.080,-54.688,-31.738,-34.180,-41.016,0
1664549465.084,-51.270,-38.086,-25.391,-21.973,0
1664549465.088,-39.551,-35.645,-34.180,-11.719,0
1664549465.092,-41.992,-31.738,-36.621,-44.922,0
1664549465.096,-51.758,-29.297,-29.785,-49.805,0
1664549465.097,-47.852,-29.785,-32.227,-38.086,0
1664549465.101,-27.344,-29.297,-24.902,-30.762,0
1664549465.105,-25.879,-30.762,-10.742,-32.715,0
1664549465.109,-44.434,-29.785,-14.648,-45.898,0
1664549465.113,-47.852,-29.297,-23.438,-41.992,0
1664549465.117,-33.203,-30.273,-30.273,-16.113,0
1664549465.121,-28.320,-27.344,-25.879,-6.348,0
1664549465.124,-44.434,-24.414,-23.438,-37.109,0
1664549465.128,-60.059,-33.203,-26.855,-49.805,0
1664549465.132,-44.434,-36.621,-21.973,-33.203,0
1664549465.136,-27.832,-30.762,-21.484,-16.113,0
1664549465.140,-38.574,-29.785,-33.691,-18.555,0
1664549465.142,-56.641,-32.227,-39.551,-28.809,0
1664549465.146,-46.387,-31.738,-35.645,-9.277,0
1664549465.150,-23.438,-26.855,-26.855,9.766,0
1664549465.154,-28.809,-24.902,-13.184,-6.836,0
1664549465.158,-49.316,-23.438,-16.113,-35.645,0
1664549465.162,-46.387,-23.926,-21.973,-41.016,0
1664549465.166,-30.273,-23.438,-31.738,-20.996,0
1664549465.169,-29.297,-22.949,-47.852,2.441,0
1664549465.173,-43.945,-24.902,-37.109,-20.508,0
1664549465.177,-52.246,-27.344,-20.020,-58.594,0
1664549465.181,-29.297,-22.949,-28.320,-31.738,0
1664549465.185,-20.020,-14.648,-35.156,-13.184,0
1664549465.187,-38.574,-15.625,-31.250,-28.809,0
1664549465.191,-43.945,-16.113,-22.461,-33.691,0
1664549465.195,-26.367,-17.578,-17.578,-27.344,0
1664549465.199,-11.230,-18.555,-17.090,-20.996,0
1664549465.203,-31.738,-21.484,-13.184,-27.832,0
1664549465.207,-44.922,-20.996,-18.555,-35.645,0
1664549465.211,-32.227,-19.531,-25.879,-20.508,0
1664549465.214,-24.414,-23.926,-28.320,9.277,0
1664549465.218,-34.180,-18.555,-29.297,-6.836,0
1664549465.222,-52.246,-20.020,-20.508,-42.969,0
1664549465.226,-54.688,-22.949,-21.484,-33.203,0
1664549465.230,-33.691,-16.602,-22.949,-8.789,0
1664549465.232,-27.832,-21.973,-11.719,-20.996,0
1664549465.236,-49.805,-25.879,-19.043,-41.992,0
1664549465.240,-53.223,-22.949,-34.668,-40.039,0
1664549465.244,-20.020,-24.414,-25.391,-17.090,0
1664549465.248,-7.324,-30.273,-32.715,-2.441,0
1664549465.252,-28.809,-27.832,-38.086,-26.855,0
1664549465.256,-39.062,-16.602,-32.715,-26.855,0
1664549465.259,-30.762,-11.230,-35.645,-0.488,0
1664549465.263,-24.414,-19.043,-21.484,-14.648,0
1664549465.267,-22.461,-23.438,-15.625,-33.203,0
1664549465.271,-36.621,-20.020,-23.926,-38.574,0
1664549465.275,-43.945,-20.508,-23.438,-31.738,0
1664549465.277,-26.855,-27.344,-21.484,-18.066,0
1664549465.281,-28.320,-30.762,-34.180,-18.555,0
1664549465.285,-42.969,-22.461,-58.594,-28.809,0
1664549465.289,-28.320,-13.672,-53.711,-12.207,0
1664549465.293,-1.953,-15.625,-23.438,13.184,0
1664549465.297,-0.488,-19.531,-19.043,11.719,0
1664549465.301,-22.949,-24.902,-21.484,-4.883,0
1664549465.304,-41.016,-27.344,-11.230,-28.320,0
1664549465.308,-26.855,-24.414,-26.855,-14.648,0
1664549465.312,-14.160,-26.367,-38.574,12.207,0
1664549465.316,-38.086,-31.738,-36.621,-19.531,0
1664549465.320,-54.199,-22.949,-31.738,-48.828,0
1664549465.322,-30.762,-14.160,-16.602,-26.855,0
1664549465.326,-8.301,-19.043,-20.020,-5.371,0
1664549465.330,-29.785,-22.461,-22.949,-14.160,0
1664549465.334,-47.852,-20.020,-18.555,-28.809,0
1664549465.338,-40.039,-16.602,-38.086,-25.391,0
1664549465.342,-23.438,-19.043,-52.734,16.113,0
1664549465.346,-29.297,-26.367,-26.855,9.277,0
1664549465.349,-58.594,-25.391,-10.254,-42.969,0
1664549465.353,-51.758,-23.926,-18.555,-40.039,0
1664549465.357,-26.855,-19.043,-29.785,1.953,0
1664549465.361,-21.484,-20.020,-30.273,8.789,0
1664549465.365,-39.062,-29.785,-9.766,-34.668,0
1664549465.397,-47.852,-26.367,6.348,-44.922,0
1664549465.401,-33.691,-23.438,-6.836,-22.949,0
1664549465.405,-26.367,-31.738,-17.578,-15.625,0
1664549465.409,-38.086,-32.715,-19.531,-34.180,0
1664549465.413,-55.176,-31.738,-28.320,-44.434,0
1664549465.417,-41.992,-31.738,-41.504,-13.672,0
1664549465.421,-21.973,-31.250,-35.645,4.883,0
1664549465.424,-38.086,-36.133,-12.695,-20.996,0
1664549465.428,-52.734,-36.133,-16.113,-35.645,0
1664549465.432,-41.992,-30.273,-21.973,-18.555,0
1664549465.436,-28.320,-24.902,-6.836,-18.555,0
1664549465.440,-16.602,-20.508,-9.766,-10.742,0
1664549465.427,-35.645,-20.020,-19.531,-11.719,0
1664549465.431,-53.711,-24.902,-10.254,-27.344,0
1664549465.435,-35.156,-33.203,3.418,-22.461,0
1664549465.439,-27.832,-31.250,-6.836,-6.836,0
1664549465.443,-44.922,-28.320,-26.855,-12.695,0
1664549465.447,-52.246,-29.785,-27.344,-15.137,0
1664549465.451,-34.180,-26.367,-20.020,-5.371,0
1664549465.454,-20.508,-25.879,-20.020,4.395,0
1664549465.458,-31.738,-26.367,-31.250,-17.090,0
1664549465.462,-50.781,-27.832,-41.992,-41.504,0
1664549465.466,-37.109,-25.879,-30.762,-16.602,0
1664549465.470,-11.230,-24.902,-8.301,-2.441,0
1664549465.472,-25.879,-29.297,-9.766,1.465,0
1664549465.476,-56.641,-27.832,-11.230,-26.367,0
1664549465.480,-46.387,-20.508,-26.367,-45.898,0
1664549465.484,-21.973,-17.578,-36.133,-11.719,0
1664549465.488,-24.902,-23.926,-14.648,-16.602,0
1664549465.492,-58.105,-33.691,-10.742,-43.457,0
1664549465.496,-66.895,-31.738,-11.230,-48.340,0
1664549465.499,-42.480,-22.949,-28.809,-22.949,0
1664549465.503,-31.738,-23.926,-42.969,3.418,0
1664549465.507,-53.711,-27.832,-31.250,-24.414,0
1664549465.511,-62.988,-20.508,-41.992,-31.738,0
1664549465.515,-41.992,-20.996,-36.133,-1.465,0
1664549465.518,-31.250,-25.391,-20.508,-4.395,0
1664549465.522,-40.527,-23.926,-20.020,-29.297,0
1664549465.526,-56.152,-24.902,-16.113,-51.758,0
1664549465.530,-50.293,-23.438,-8.789,-50.781,0
1664549465.534,-28.809,-28.320,-4.883,-30.273,0
1664549465.538,-28.320,-27.344,-15.625,-26.367,0
1664549465.542,-47.363,-24.902,-20.996,-49.316,0
1664549465.545,-57.617,-35.156,-20.508,-37.109,0
1664549465.549,-38.086,-28.320,-33.691,-6.836,0
1664549465.553,-29.297,-19.043,-27.832,-18.555,0
1664549465.557,-57.617,-27.832,-18.555,-39.062,0
1664549465.561,-70.801,-28.320,-16.602,-51.270,0
1664549465.562,-55.176,-25.879,-19.531,-37.598,0
1664549465.566,-50.293,-28.809,-27.344,-25.879,0
1664549465.570,-59.082,-29.297,-18.066,-34.180,0
1664549465.574,-67.383,-26.367,-17.578,-41.504,0
1664549465.578,-56.152,-23.438,-26.855,-37.109,0
1664549465.582,-40.039,-28.809,-27.832,-20.996,0
1664549465.586,-52.246,-33.691,-21.973,-34.180,0
1664549465.589,-66.895,-32.227,-21.973,-45.898,0
1664549465.593,-61.035,-28.809,-30.762,-43.945,0
1664549465.597,-31.250,-27.344,-46.387,-24.902,0
1664549465.601,-17.090,-31.738,-33.203,9.277,0
1664549465.605,-38.574,-34.668,-7.812,-3.418,0
1664549465.607,-57.129,-33.691,-9.766,-35.156,0
1664549465.611,-47.852,-27.832,-15.137,-29.297,0
1664549465.615,-44.434,-27.832,-20.508,-14.160,0
1664549465.619,-55.176,-28.809,-20.020,-28.809,0
1664549465.623,-59.082,-23.926,-41.016,-39.062,0
1664549465.627,-33.691,-23.438,-43.457,-5.859,0
1664549465.631,-11.719,-36.133,-18.555,28.320,0
1664549465.634,-29.785,-41.992,-12.695,2.930,0
1664549465.638,-48.340,-31.250,-14.160,-44.434,0
1664549465.642,-33.203,-23.926,-20.996,-25.879,0
1664549465.646,-17.090,-21.973,-22.461,6.836,0
1664549465.650,-27.344,-24.414,-23.926,3.906,0
1664549465.652,-44.922,-22.949,-17.090,-25.879,0
1664549465.656,-47.852,-23.438,-19.531,-38.086,0
1664549465.660,-36.133,-31.738,-12.207,-16.113,0
1664549465.664,-30.273,-28.809,6.348,-9.277,0
1664549465.668,-43.457,-24.414,-1.465,-28.320,0
1664549465.672,-47.363,-28.320,-21.973,-28.320,0
1664549465.676,-28.320,-30.273,-24.902,7.324,0
1664549465.679,-23.438,-30.273,-26.855,6.836,0
1664549465.683,-38.574,-28.809,-33.691,-27.344,0
1664549465.687,-51.758,-29.785,-25.879,-27.832,0
1664549465.691,-42.480,-36.133,-9.277,-15.625,0
1664549465.695,-36.133,-36.133,-6.348,-23.438,0
1664549465.697,-45.898,-30.273,-14.160,-41.016,0
1664549465.701,-53.223,-26.855,-22.461,-38.574,0
1664549465.705,-46.387,-30.273,-20.020,-32.227,0
1664549465.709,-28.809,-39.062,-24.414,-27.344,0
1664549465.713,-31.250,-35.645,-24.414,-25.879,0
1664549465.717,-45.898,-27.344,-25.391,-23.926,0
1664549465.721,-41.504,-27.832,-31.250,-14.160,0
1664549465.724,-23.438,-29.785,-25.879,-3.418,0
1664549465.728,-25.391,-32.715,-26.367,3.906,0
1664549465.732,-49.316,-37.598,-18.066,-20.508,0
1664549465.736,-54.199,-37.598,-20.508,-33.691,0
1664549465.740,-39.062,-34.180,-17.090,-16.113,0
1664549465.757,-35.156,-32.715,-23.438,-4.395,0
1664549465.761,-40.039,-27.832,-28.320,-23.438,0
1664549465.765,-48.828,-26.367,-27.344,-34.668,0
1664549465.769,-43.457,-23.438,-40.039,-18.555,0
1664549465.773,-27.344,-21.484,-34.668,-2.441,0
1664549465.777,-38.574,-24.414,-31.738,-2.930,0
1664549465.781,-59.570,-17.578,-25.391,-31.738,0
1664549465.784,-58.105,-23.926,-13.184,-47.852,0
1664549465.788,-41.992,-32.227,-1.953,-29.297,0
1664549465.792,-40.039,-27.832,-2.930,-17.578,0
1664549465.796,-61.035,-25.391,-10.254,-47.363,0
1664549465.800,-62.012,-26.855,-15.137,-44.922,0
1664549465.802,-41.016,-29.297,-20.996,-16.113,0
1664549465.806,-28.320,-27.832,-36.621,-16.113,0
1664549465.810,-45.898,-25.391,-51.758,-37.598,0
1664549465.814,-53.223,-20.996,-32.227,-41.504,0
1664549465.818,-24.902,-20.508,-21.973,-13.672,0
1664549465.822,-21.973,-23.438,-17.578,-4.883,0
1664549465.826,-44.922,-21.973,-15.137,-23.926,0
1664549465.829,-50.293,-18.555,-24.414,-33.691,0
1664549465.833,-35.156,-20.508,-37.598,-2.930,0
1664549465.837,-28.809,-29.785,-39.551,8.301,0
1664549465.841,-40.039,-29.297,-22.461,-33.203,0
1664549465.845,-58.594,-33.691,-9.277,-54.199,0
1664549465.850,-49.805,-34.180,-6.348,-42.480,0
1664549465.854,-30.273,-27.344,-10.254,-18.555,0
1664549465.858,-26.855,-25.879,-34.180,-14.160,0
1664549465.862,-33.203,-25.391,-44.922,-24.414,0
1664549465.866,-48.340,-31.738,-24.414,-34.668,0
1664549465.870,-40.039,-29.785,-14.648,-28.809,0
1664549465.874,-32.715,-25.879,-20.020,-27.344,0
1664549465.877,-52.246,-33.691,-26.855,-48.828,0
1664549465.881,-62.988,-38.086,-35.645,-49.805,0
1664549465.885,-53.223,-33.203,-44.434,-35.645,0
1664549465.889,-41.992,-32.715,-36.133,-25.391,0
1664549465.893,-44.434,-34.180,-35.156,-25.391,0
1664549465.892,-46.875,-30.273,-34.668,-31.738,0
1664549465.896,-33.203,-26.855,-24.414,-17.090,0
1664549465.900,-29.297,-35.645,-20.996,-4.395,0
1664549465.904,-53.711,-40.527,-12.207,-25.879,0
1664549465.908,-71.777,-40.527,-10.254,-52.734,0
1664549465.912,-61.523,-43.945,-22.461,-43.945,0
1664549465.916,-45.410,-38.574,-29.785,-13.184,0
1664549465.919,-45.898,-37.109,-35.645,1.953,0
1664549465.923,-62.012,-34.668,-30.762,-23.926,0
1664549465.927,-62.500,-28.809,-21.484,-47.852,0
1664549465.931,-36.621,-31.250,-36.133,-21.973,0
1664549465.935,-29.297,-33.691,-46.387,-1.953,0
1664549465.938,-49.805,-35.156,-29.297,-27.344,0
1664549465.942,-65.918,-33.203,-12.695,-55.664,0
1664549465.946,-53.223,-29.785,-6.836,-38.574,0
1664549465.950,-34.668,-29.785,-10.742,-13.672,0
1664549465.954,-45.410,-33.203,-34.668,-18.555,0
1664549465.958,-76.172,-36.133,-29.297,-46.875,0
1664549465.962,-79.590,-35.645,-20.996,-44.434,0
1664549465.965,-54.688,-33.691,-24.902,-8.301,0
1664549465.969,-53.711,-37.598,-20.996,-25.391,0
1664549465.973,-70.801,-33.691,-26.367,-55.664,0
1664549465.977,-61.523,-23.438,-38.086,-31.738,0
1664549465.981,-42.480,-26.855,-47.852,3.418,0
1664549465.982,-43.457,-30.762,-27.344,-4.395,0
1664549465.986,-62.500,-30.762,-4.395,-45.410,0
1664549465.990,-68.848,-29.297,-2.441,-57.617,0
1664549465.994,-49.805,-29.785,-16.113,-37.109,0
1664549465.998,-44.922,-32.227,-19.531,-19.043,0
1664549466.002,-59.082,-27.344,-17.578,-28.320,0
1664549466.006,-50.293,-25.879,-28.809,-18.066,0
1664549466.009,-35.645,-25.391,-35.156,6.348,0
1664549466.013,-31.250,-18.555,-22.461,-6.348,0
1664549466.017,-44.434,-19.531,-14.648,-32.227,0
1664549466.021,-64.941,-31.738,-27.344,-51.270,0
1664549466.025,-62.500,-30.762,-27.344,-49.316,0
1664549466.025,-56.152,-23.926,-20.996,-45.898,0
1664549466.029,-62.500,-22.461,-26.855,-44.922,0
1664549466.033,-94.238,-20.508,-44.434,-74.707,0
1664549466.037,-117.188,-23.926,-23.926,-95.703,0
1664549466.041,-111.816,-30.273,4.883,-84.473,0
1664549466.045,-108.887,-31.738,-4.395,-82.520,0
1664549466.049,-132.812,-29.297,-11.230,-91.309,0
1664549466.052,-165.039,-28.809,0.977,-129.883,0
1664549466.056,-170.898,-29.297,3.906,-153.320,0
1664549466.060,-173.340,-32.227,5.371,-152.344,0
1664549466.064,-200.684,-33.691,9.766,-178.711,0
1664549466.068,-221.191,-31.250,0.977,-208.496,0
1664549466.070,-215.820,-32.227,0.488,-203.125,0
1664549466.074,-206.055,-30.273,6.348,-191.406,0
1664549466.078,-206.055,-19.531,-0.488,-193.848,0
1664549466.082,-213.867,-17.090,-0.488,-201.660,90
1664549466.086,-204.102,-15.137,10.254,-190.430,0
1664549466.090,-174.316,-18.066,10.254,-142.090,0
1664549466.094,-170.410,-23.926,9.766,-131.348,0
1664549466.097,-186.523,-16.602,12.207,-167.969,0
1664549466.101,-177.734,-19.531,11.719,-171.875,0
1664549466.105,-150.879,-30.273,-4.883,-142.578,0
1664549466.109,-133.301,-25.391,-21.484,-119.141,0
1664549466.113,-135.742,-29.297,-12.695,-125.000,0
1664549466.130,-143.555,-35.645,-2.930,-125.000,0
1664549466.134,-123.047,-33.203,-10.742,-98.145,0
1664549466.138,-85.938,-34.668,-21.973,-72.754,0
1664549466.142,-77.637,-35.645,-15.137,-57.617,0
1664549466.146,-89.844,-32.715,-2.441,-62.988,0
1664549466.150,-72.754,-33.203,-10.254,-57.617,0
1664549466.154,-50.293,-39.062,-15.625,-33.203,0
1664549466.157,-56.152,-40.527,-4.395,-39.551,0
1664549466.161,-65.918,-39.551,-6.348,-58.105,0
1664549466.165,-56.641,-41.992,-19.531,-37.598,0
1664549466.169,-33.203,-41.016,-23.926,-7.812,0
1664549466.173,-24.902,-40.039,-29.785,-1.953,0
1664549466.175,-29.297,-36.133,-41.016,-10.742,0
1664549466.179,-26.367,-37.598,-28.320,-7.812,0
1664549466.183,-15.625,-39.551,-15.137,7.812,0
1664549466.187,-3.418,-34.180,-19.531,16.602,0
1664549466.191,-11.719,-35.156,-11.230,5.859,0
1664549466.195,-18.555,-38.574,-3.418,-15.625,0
1664549466.199,0.000,-36.621,-13.672,-3.906,0
1664549466.202,21.973,-34.668,-20.508,19.531,0
1664549466.206,17.578,-36.621,-27.832,22.461,0
1664549466.210,-2.930,-30.273,-31.250,7.324,0
1664549466.214,3.906,-26.855,-28.320,-2.441,0
1664549466.218,25.879,-29.297,-34.180,29.297,0
