timestamps,TP9,AF7,AF8,TP10,marker
1664567140.347,-75.195,-49.805,-39.551,-111.816,0
1664567140.351,-42.480,-46.875,-37.598,-115.723,0
1664567140.355,-81.543,-51.758,-38.574,-104.980,0
1664567140.359,-129.395,-50.293,-33.203,-98.145,0
1664567140.363,-87.891,-49.316,-36.621,-106.445,0
1664567140.367,-30.762,-51.270,-37.598,-107.422,0
1664567140.371,-50.781,-50.781,-37.598,-98.633,0
1664567140.374,-115.234,-40.527,-37.598,-80.078,0
1664567140.378,-104.492,-33.203,-39.062,-85.938,0
1664567140.382,-31.250,-42.480,-39.062,-100.586,0
1664567140.386,-38.086,-43.945,-32.227,-95.703,0
1664567140.390,-93.262,-40.039,-35.156,-86.426,0
1664567140.408,-109.375,-44.434,-38.574,-83.496,0
1664567140.412,-43.945,-43.945,-30.762,-89.355,0
1664567140.416,-22.949,-38.086,-27.832,-97.168,0
1664567140.420,-63.965,-32.227,-29.297,-86.426,0
1664567140.424,-109.863,-32.227,-32.227,-68.848,0
1664567140.428,-63.477,-37.109,-29.297,-74.707,0
1664567140.432,-19.531,-38.574,-30.762,-95.215,0
1664567140.435,-55.664,-40.527,-38.574,-87.891,0
1664567140.439,-122.070,-48.828,-36.621,-62.988,0
1664567140.443,-90.820,-48.828,-36.621,-62.988,0
1664567140.447,-35.156,-46.875,-45.410,-97.656,0
1664567140.451,-56.152,-48.340,-41.504,-106.934,0
1664567140.451,-112.793,-46.387,-35.156,-84.961,0
1664567140.455,-112.793,-50.293,-38.574,-82.520,0
1664567140.459,-48.340,-48.828,-40.039,-86.914,0
1664567140.463,-41.504,-45.898,-43.457,-93.262,0
1664567140.467,-91.309,-45.898,-42.969,-88.379,0
1664567140.471,-112.793,-48.828,-38.574,-72.266,0
1664567140.475,-55.664,-43.945,-42.969,-80.566,0
1664567140.478,-27.344,-32.227,-38.574,-85.938,0
1664567140.482,-65.918,-38.574,-36.621,-68.848,0
1664567140.486,-113.770,-49.805,-43.945,-57.617,0
1664567140.490,-68.359,-50.293,-48.828,-70.801,0
1664567140.494,-18.555,-44.922,-48.340,-79.102,0
1664567140.497,-57.617,-46.387,-49.805,-73.730,0
1664567140.501,-109.375,-50.781,-52.734,-62.012,0
1664567140.505,-85.938,-47.852,-50.781,-57.617,0
1664567140.509,-29.785,-45.410,-44.922,-78.613,0
1664567140.513,-38.574,-48.340,-44.922,-79.102,0
1664567140.517,-98.145,-44.434,-43.945,-53.223,0
1664567140.521,-104.492,-39.062,-45.410,-54.688,0
1664567140.524,-41.504,-44.922,-47.363,-66.406,0
1664567140.528,-15.137,-45.898,-44.434,-47.363,0
1664567140.532,-73.730,-31.738,-48.340,-55.664,0
1664567140.536,-117.188,-29.297,-46.875,-63.477,0
1664567140.540,-55.664,-35.156,-42.480,-49.316,0
1664567140.557,-32.227,-30.273,-38.086,-77.637,0
1664567140.561,-67.871,-29.297,-40.039,-89.355,0
1664567140.565,-110.352,-29.785,-42.969,-67.383,0
1664567140.569,-71.777,-24.902,-36.133,-62.012,0
1664567140.573,-17.578,-27.344,-35.156,-76.660,0
1664567140.577,-48.828,-32.715,-37.598,-73.242,0
1664567140.581,-109.863,-31.250,-35.645,-54.688,0
1664567140.584,-92.285,-29.785,-32.715,-49.316,0
1664567140.588,-33.691,-36.133,-38.574,-74.707,0
1664567140.592,-40.527,-39.551,-42.480,-88.379,0
1664567140.596,-99.609,-35.156,-35.645,-62.988,0
1664567140.600,-107.422,-30.762,-30.762,-41.992,0
1664567140.601,-39.062,-35.645,-31.738,-55.664,0
1664567140.605,-32.227,-42.969,-30.762,-67.871,0
1664567140.609,-79.590,-42.480,-30.762,-52.734,0
1664567140.613,-114.746,-45.898,-35.645,-45.898,0
1664567140.617,-62.012,-41.992,-36.621,-62.012,0
1664567140.621,-20.996,-36.133,-33.203,-67.871,0
1664567140.625,-57.129,-42.480,-37.598,-62.500,0
1664567140.628,-113.281,-46.387,-40.527,-42.969,0
1664567140.632,-100.098,-43.457,-43.945,-51.758,0
1664567140.636,-44.922,-41.992,-39.551,-77.637,0
1664567140.640,-51.758,-41.504,-31.738,-63.477,0
1664567140.644,-108.398,-44.434,-25.879,-34.180,0
1664567140.633,-118.652,-42.480,-31.738,-41.992,0
1664567140.637,-56.152,-39.062,-36.133,-54.688,0
1664567140.641,-46.387,-43.457,-33.203,-53.223,0
1664567140.645,-112.793,-42.969,-35.645,-49.805,0
1664567140.649,-134.277,-47.363,-38.086,-43.945,0
1664567140.653,-60.059,-48.828,-30.762,-46.875,0
1664567140.657,-33.203,-42.480,-28.809,-59.082,0
1664567140.660,-83.984,-41.016,-33.691,-55.176,0
1664567140.664,-133.301,-37.598,-34.180,-47.363,0
1664567140.668,-71.289,-40.039,-37.109,-49.805,0
1664567140.672,-25.879,-45.898,-37.598,-48.340,0
1664567140.676,-63.477,-45.410,-39.551,-48.828,0
1664567140.676,-122.559,-42.969,-37.109,-46.387,0
1664567140.680,-93.750,-40.039,-28.320,-39.551,0
1664567140.684,-27.832,-36.621,-31.250,-39.551,0
1664567140.688,-41.504,-39.062,-40.527,-46.387,0
1664567140.692,-118.652,-43.945,-40.527,-40.039,0
1664567140.696,-114.746,-47.852,-36.133,-27.344,0
1664567140.700,-43.945,-45.410,-31.250,-24.902,0
1664567140.703,-42.969,-41.504,-40.039,-48.340,0
1664567140.707,-87.891,-37.109,-46.875,-41.992,0
1664567140.711,-107.910,-40.039,-36.133,-20.020,0
1664567140.715,-43.945,-41.504,-34.668,-34.180,0
1664567140.719,-13.672,-37.598,-40.527,-43.457,0
1664567140.721,-59.570,-41.504,-37.109,-34.668,0
1664567140.725,-116.211,-45.898,-35.645,-24.414,0
1664567140.729,-77.148,-38.086,-41.016,-28.320,0
1664567140.733,-29.785,-40.039,-43.945,-49.316,0
1664567140.737,-59.570,-42.969,-38.086,-47.363,0
1664567140.741,-105.469,-41.504,-29.297,-23.438,0
1664567140.745,-88.867,-43.945,-31.738,-30.273,0
1664567140.748,-25.879,-39.062,-34.668,-44.922,0
1664567140.752,-33.691,-41.504,-31.738,-35.156,0
1664567140.756,-86.426,-39.062,-28.320,-13.672,0
1664567140.760,-95.215,-35.645,-29.297,-12.695,0
1664567140.764,-51.758,-34.180,-31.250,-44.434,0
1664567140.782,-39.551,-39.062,-33.203,-59.082,0
1664567140.786,-81.543,-45.898,-33.691,-37.598,0
1664567140.790,-120.117,-40.039,-34.668,-33.203,0
1664567140.794,-66.895,-40.527,-36.621,-54.199,0
1664567140.798,-22.949,-45.410,-35.645,-60.547,0
1664567140.802,-50.293,-47.363,-32.715,-41.504,0
1664567140.806,-124.512,-42.480,-36.133,-34.668,0
1664567140.809,-92.773,-35.645,-38.574,-45.898,0
1664567140.813,-18.066,-38.086,-38.574,-51.758,0
1664567140.817,-38.086,-46.387,-33.203,-34.668,0
1664567140.821,-109.863,-46.875,-30.273,-29.297,0
1664567140.825,-95.703,-43.945,-29.297,-38.574,0
1664567140.827,-28.320,-49.316,-28.320,-43.457,0
1664567140.831,-35.156,-48.340,-33.203,-50.293,0
1664567140.835,-99.121,-45.410,-35.156,-44.434,0
1664567140.839,-108.887,-46.875,-32.715,-37.598,0
1664567140.843,-28.809,-45.898,-29.297,-36.621,0
1664567140.847,-20.020,-52.734,-28.320,-32.715,0
1664567140.851,-74.219,-53.223,-33.691,-42.969,0
1664567140.854,-121.094,-51.758,-39.062,-41.992,0
1664567140.858,-68.848,-44.434,-36.621,-35.645,0
1664567140.862,-29.297,-45.410,-41.992,-46.387,0
1664567140.866,-63.477,-43.457,-42.969,-40.039,0
1664567140.870,-106.445,-43.945,-38.086,-30.762,0
1664567140.872,-75.195,-48.340,-37.598,-33.691,0
1664567140.876,-26.367,-46.875,-36.133,-36.621,0
1664567140.880,-43.945,-47.363,-37.109,-45.898,0
1664567140.884,-108.398,-45.410,-32.227,-43.945,0
1664567140.888,-98.633,-44.434,-30.273,-43.457,0
1664567140.892,-34.668,-46.875,-36.133,-48.828,0
1664567140.896,-33.691,-44.434,-36.133,-50.781,0
1664567140.899,-89.844,-39.551,-27.344,-33.691,0
1664567140.903,-104.004,-39.551,-24.414,-8.301,0
1664567140.907,-56.641,-46.387,-38.574,-32.227,0
1664567140.911,-42.969,-53.223,-45.410,-59.082,0
1664567140.915,-88.379,-51.758,-44.434,-52.246,0
1664567140.918,-144.043,-49.316,-45.410,-40.039,0
1664567140.922,-84.961,-50.293,-47.852,-46.875,0
1664567140.926,-25.879,-49.316,-43.457,-65.430,0
1664567140.930,-56.641,-45.898,-43.457,-67.383,0
1664567140.934,-113.281,-43.457,-43.457,-57.129,0
1664567140.938,-95.215,-44.922,-41.016,-59.082,0
1664567140.942,-37.598,-44.922,-44.434,-75.195,0
1664567140.945,-41.504,-47.852,-50.293,-70.801,0
1664567140.949,-125.000,-55.176,-57.617,-52.734,0
1664567140.953,-118.652,-51.270,-55.664,-52.246,0
1664567140.957,-22.949,-44.434,-47.852,-68.848,0
1664567140.961,-26.855,-42.969,-49.316,-73.730,0
1664567140.962,-95.215,-49.805,-49.316,-57.129,0
1664567140.966,-115.723,-48.828,-44.434,-52.246,0
1664567140.970,-77.148,-48.828,-42.969,-67.383,0
1664567140.974,-35.156,-43.945,-39.062,-63.477,0
1664567140.978,-70.312,-41.504,-38.086,-50.781,0
1664567140.982,-101.074,-41.504,-31.738,-28.809,0
1664567140.986,-53.223,-36.621,-29.297,-34.668,0
1664567140.989,-55.664,-45.410,-33.203,-43.457,0
1664567140.993,-56.152,-48.828,-43.945,-53.223,0
1664567140.997,-79.102,-44.434,-53.711,-57.617,0
1664567141.001,-63.965,-52.734,-47.852,-36.133,0
1664567141.005,7.812,-45.410,-40.039,-36.133,0
1664567141.007,-6.348,-32.715,-39.062,-56.641,0
1664567141.011,-84.473,-48.828,-40.527,-42.480,0
1664567141.015,-91.309,-58.105,-41.016,-33.691,0
1664567141.019,-19.531,-45.410,-38.086,-49.316,0
1664567141.023,13.672,-38.574,-36.621,-42.480,0
1664567141.027,-33.203,-41.992,-33.203,-25.879,0
1664567141.031,-96.191,-41.504,-28.809,-20.508,0
1664567141.034,-72.754,-38.086,-28.320,-36.621,0
1664567141.038,-37.109,-37.109,-30.273,-55.664,0
1664567141.042,-81.055,-43.457,-35.156,-62.500,0
1664567141.046,-118.164,-50.293,-36.621,-30.273,0
1664567141.050,-49.805,-44.922,-35.156,-10.742,0
1664567141.052,-2.441,-34.668,-33.203,-45.898,0
1664567141.056,-46.875,-30.273,-34.668,-54.199,0
1664567141.060,-104.980,-37.109,-43.457,-47.363,0
1664567141.064,-89.844,-44.922,-31.738,-24.414,0
1664567141.068,29.297,-40.039,-24.902,-21.484,0
1664567141.072,28.320,-36.133,-33.203,-20.020,0
1664567141.076,-48.340,-38.086,-32.227,5.859,0
1664567141.079,-92.773,-44.922,-36.133,-19.531,0
1664567141.083,-57.129,-48.340,-38.086,-43.457,0
1664567141.087,12.207,-34.180,-47.852,-35.156,0
1664567141.091,-60.547,-33.203,-31.738,-59.082,0
1664567141.095,-219.238,-49.805,8.789,-102.051,0
1664567141.097,-170.410,-72.266,-31.738,-45.898,0
1664567141.101,19.043,-23.926,-83.496,-68.848,0
1664567141.105,-38.086,-2.441,-85.938,-83.984,0
1664567141.109,-55.664,-47.363,-18.555,72.754,0
1664567141.113,-17.090,-53.223,-37.598,-17.090,0
1664567141.117,-95.215,-28.809,-48.828,-131.348,0
1664567141.121,-54.199,-63.477,-6.348,24.414,0
1664567141.124,-143.555,-78.613,-11.719,-0.977,0
1664567141.128,-173.340,2.441,-9.277,-132.812,0
1664567141.132,-69.824,-20.020,-72.266,-97.656,0
1664567141.136,-94.238,-21.973,-116.699,-95.215,0
1664567141.140,-147.949,-35.156,-34.668,11.719,0
1664567141.157,-162.598,-50.293,-50.781,51.758,0
1664567141.161,93.262,-46.875,-24.414,124.023,0
1664567141.165,210.449,-48.828,-3.906,138.672,0
1664567141.169,1.465,-15.137,-35.156,45.898,0
1664567141.173,-157.715,-55.664,-18.066,1.465,0
1664567141.177,-156.250,-9.277,-23.438,-145.996,0
1664567141.181,-300.293,55.176,-81.543,-283.691,0
1664567141.184,-229.004,-18.066,-112.305,-192.383,0
1664567141.188,21.973,-24.902,-10.742,-22.949,0
1664567141.192,16.113,-66.895,11.719,54.688,0
1664567141.196,48.828,-120.117,33.691,157.227,0
1664567141.200,-84.473,-60.059,22.949,103.027,0
1664567141.203,-195.312,-33.203,-6.836,-87.891,0
1664567141.207,10.254,-24.414,-42.480,-8.301,0
1664567141.211,-57.129,-13.672,-25.879,26.367,0
1664567141.215,-304.688,67.871,-18.555,-262.695,0
1664567141.219,-87.891,-37.109,-111.816,-104.492,0
1664567141.223,31.250,-163.574,-22.461,75.195,0
1664567141.227,-88.379,-48.828,102.539,-229.004,0
1664567141.230,102.051,-39.062,-88.379,4.883,0
1664567141.234,38.086,-111.328,-92.773,160.156,0
1664567141.238,-24.902,-141.113,-15.625,82.520,0
1664567141.242,143.066,-8.301,-142.090,44.922,0
1664567141.246,62.500,-26.855,-122.070,83.496,0
1664567141.247,-158.203,-37.109,-93.750,2.930,0
1664567141.251,-89.844,-84.473,-27.344,-125.000,0
1664567141.255,-24.902,-85.938,23.926,-51.270,0
1664567141.259,17.578,-46.875,-65.430,-1.465,0
1664567141.263,143.066,-62.988,-121.094,-40.527,0
1664567141.267,169.922,-59.082,-53.223,55.176,0
1664567141.271,-0.977,-54.199,-33.203,16.113,0
1664567141.274,-69.336,6.836,-106.445,-238.281,0
1664567141.278,51.758,-57.129,-94.727,-121.582,0
1664567141.282,-18.066,-51.270,-90.820,-19.043,0
1664567141.286,69.336,-57.129,-82.031,15.625,0
1664567141.290,63.965,-88.867,-38.574,-38.086,0
1664567141.292,109.863,-87.402,-76.660,-69.336,0
1664567141.296,104.980,-33.691,-77.148,-64.941,0
1664567141.300,-36.621,15.625,-116.211,-16.602,0
1664567141.304,-90.820,-25.391,-98.633,-134.277,0
1664567141.308,-54.199,-73.242,-176.270,-191.895,0
1664567141.312,25.879,-56.152,-52.734,84.473,0
1664567141.316,-4.395,-20.508,23.438,26.367,0
1664567141.319,-8.789,35.156,-91.309,-81.543,0
1664567141.323,104.492,-6.836,-137.695,-45.410,0
1664567141.327,-24.902,-52.734,-74.707,-93.262,0
1664567141.331,-141.602,-75.195,3.418,-133.789,0
1664567141.335,61.523,-61.035,-46.387,-75.684,0
1664567141.337,-67.383,-70.801,-29.785,-72.754,0
1664567141.341,29.785,-75.195,-68.359,45.410,0
1664567141.345,99.121,-23.438,-67.871,-69.336,0
1664567141.349,-32.715,-15.625,-63.965,-166.992,0
1664567141.353,-19.531,-17.090,-61.523,-16.113,0
1664567141.357,13.184,-73.730,-26.367,-33.691,0
1664567141.361,-201.660,-35.645,-76.660,-80.078,0
1664567141.364,-267.578,-68.359,-69.336,-48.828,0
1664567141.368,104.492,-119.141,-8.789,-10.254,0
1664567141.372,124.023,-26.855,-78.613,-55.176,0
1664567141.376,56.641,-23.926,-126.953,-99.609,0
1664567141.380,-30.762,-64.941,-25.391,-218.750,0
1664567141.382,-101.562,-41.504,-49.805,-79.590,0
1664567141.386,-58.594,36.133,-100.586,-76.660,0
1664567141.390,-45.898,-48.828,-56.641,-189.453,0
1664567141.394,-17.090,-81.055,-24.902,20.508,0
1664567141.398,-56.152,-8.301,-103.027,-117.676,0
1664567141.402,-6.836,-55.664,-55.664,-29.785,0
1664567141.406,20.508,-74.707,52.246,45.410,0
1664567141.409,-122.070,-64.941,-16.602,-114.746,0
1664567141.413,-149.414,-74.219,-97.656,-35.156,0
1664567141.417,-6.348,-105.469,-6.836,-52.246,0
1664567141.421,11.230,-79.102,-24.902,-49.316,0
1664567141.425,-5.859,-26.367,-127.930,56.152,0
1664567141.428,-106.934,-0.488,-111.816,-27.832,0
1664567141.432,-133.301,-4.395,-36.133,-200.684,0
1664567141.436,-76.660,-21.484,-36.621,-266.113,0
1664567141.440,23.438,-90.820,-46.875,36.621,0
1664567141.444,-21.973,-93.750,-41.992,-18.555,0
1664567141.448,-147.461,-61.523,-41.504,-205.078,0
1664567141.452,-81.543,-37.598,-67.871,-39.551,0
1664567141.455,-63.965,-48.828,-97.168,17.578,0
1664567141.459,-118.164,-110.840,46.875,-106.445,0
1664567141.463,-138.184,-120.117,40.527,-60.547,0
1664567141.467,-68.848,-56.641,-89.355,-103.516,0
1664567141.471,22.461,-64.941,-123.535,-93.262,0
1664567141.472,-99.121,-84.473,-56.641,-31.738,0
1664567141.476,-163.574,-14.648,-32.227,-99.609,0
1664567141.480,-3.418,-62.012,-71.777,-15.137,0
1664567141.484,67.383,-111.328,-89.844,10.742,0
1664567141.488,-20.020,-71.777,-90.332,-94.238,0
1664567141.492,-204.590,8.789,83.008,-187.012,0
1664567141.496,-103.516,-86.426,-8.301,-23.438,0
1664567141.499,8.789,-123.535,-16.602,-77.148,0
1664567141.503,61.523,-90.820,-20.996,-128.418,0
1664567141.507,8.789,-80.566,-36.621,42.480,0
1664567141.511,-42.480,-62.500,-36.133,-3.906,0
1664567141.515,8.789,-70.801,-102.051,-89.355,0
1664567141.533,36.621,-43.945,-43.945,-41.016,0
1664567141.537,17.090,-48.828,-1.465,-110.840,0
1664567141.541,-82.031,-78.125,-34.668,-102.539,0
1664567141.545,-20.996,-74.219,-44.434,-37.109,0
1664567141.549,-39.551,-60.059,-24.414,-94.238,0
1664567141.553,-48.828,-50.781,-48.340,-38.574,0
1664567141.557,-59.082,-60.059,-58.594,-35.156,0
1664567141.560,-98.633,-62.988,-48.340,-84.473,0
1664567141.564,-51.758,-53.711,-47.363,-88.867,0
1664567141.568,-0.977,-55.176,-44.922,-92.773,0
1664567141.572,-80.078,-46.875,-43.945,-82.031,0
1664567141.576,-79.590,-48.340,-46.387,-98.145,0
1664567141.577,-5.371,-54.199,-43.457,-101.562,0
1664567141.581,-33.203,-52.246,-36.133,-86.426,0
1664567141.585,-87.402,-47.852,-39.062,-98.633,0
1664567141.589,-120.605,-43.945,-39.062,-98.145,0
1664567141.593,-40.039,-41.016,-26.367,-101.562,0
1664567141.597,-16.113,-41.992,-22.461,-108.398,0
1664567141.601,-88.867,-47.852,-27.344,-103.027,0
1664567141.604,-133.301,-49.805,-26.855,-104.980,0
1664567141.608,-89.355,-46.875,-25.879,-121.094,0
1664567141.612,-54.199,-44.434,-26.855,-134.277,0
1664567141.616,-78.613,-38.574,-25.879,-132.324,0
1664567141.620,-125.488,-36.621,-23.926,-117.188,0
1664567141.622,-109.375,-35.645,-21.973,-112.793,0
1664567141.626,-58.105,-35.645,-24.414,-127.441,0
1664567141.630,-70.801,-36.133,-27.832,-132.324,0
1664567141.634,-145.020,-28.320,-19.531,-119.141,0
1664567141.638,-145.020,-32.715,-16.113,-125.977,0
1664567141.642,-74.219,-40.039,-23.438,-145.508,0
1664567141.646,-77.637,-35.645,-27.344,-152.832,0
1664567141.649,-141.113,-27.832,-24.902,-138.672,0
1664567141.653,-161.133,-31.250,-14.160,-127.441,0
1664567141.657,-113.770,-36.133,-16.602,-146.973,0
1664567141.661,-98.145,-36.133,-18.555,-166.992,0
1664567141.665,-130.371,-36.621,-16.113,-147.461,0
1664567141.667,-176.270,-36.621,-18.066,-135.742,0
1664567141.671,-133.301,-31.738,-17.578,-149.902,0
1664567141.675,-87.891,-30.273,-15.137,-164.062,0
1664567141.679,-117.676,-29.785,-17.578,-156.738,0
1664567141.683,-187.012,-32.227,-20.020,-137.695,0
1664567141.687,-161.133,-24.414,-18.066,-140.137,0
1664567141.691,-98.145,-15.137,-17.578,-154.785,0
1664567141.694,-107.910,-21.973,-18.555,-143.066,0
1664567141.698,-154.297,-25.879,-22.949,-126.465,0
1664567141.702,-161.621,-20.508,-19.531,-142.090,0
1664567141.706,-96.680,-23.438,-12.207,-154.297,0
1664567141.710,-80.078,-24.902,-11.230,-151.855,0
1664567141.712,-132.324,-26.855,-17.090,-151.367,0
1664567141.716,-158.691,-28.320,-20.020,-142.090,0
1664567141.720,-100.098,-29.785,-18.066,-142.090,0
1664567141.724,-63.965,-28.320,-15.625,-156.738,0
1664567141.728,-102.539,-32.227,-20.996,-157.715,0
1664567141.732,-146.484,-39.551,-20.508,-143.066,0
1664567141.736,-102.539,-37.598,-20.996,-136.230,0
1664567141.739,-61.523,-40.527,-22.461,-136.230,0
1664567141.743,-93.750,-41.504,-30.762,-147.949,0
1664567141.747,-157.227,-41.016,-37.598,-152.344,0
1664567141.751,-136.230,-43.945,-33.691,-151.855,0
1664567141.755,-70.801,-41.992,-36.621,-170.410,0
1664567141.771,-79.102,-40.527,-36.133,-167.969,0
1664567141.775,-138.672,-35.156,-36.133,-155.762,0
1664567141.779,-145.020,-33.203,-38.086,-158.203,0
1664567141.783,-80.078,-44.434,-36.133,-175.781,0
1664567141.787,-55.664,-45.898,-35.156,-173.828,0
1664567141.791,-99.121,-38.574,-32.227,-149.902,0
1664567141.795,-140.137,-36.133,-28.320,-138.672,0
1664567141.798,-82.031,-46.387,-31.738,-145.020,0
1664567141.802,-43.945,-48.828,-30.762,-166.504,0
1664567141.806,-87.891,-46.875,-24.902,-150.879,0
1664567141.810,-141.602,-48.828,-27.344,-128.906,0
1664567141.814,-111.328,-49.805,-27.344,-156.250,0
1664567141.801,-55.664,-43.945,-26.855,-171.387,0
1664567141.805,-64.453,-42.480,-28.320,-156.250,0
1664567141.809,-113.770,-44.922,-24.414,-136.719,0
1664567141.813,-110.840,-46.875,-28.809,-140.625,0
1664567141.817,-49.805,-43.457,-34.668,-154.297,0
1664567141.821,-49.316,-33.691,-32.227,-153.809,0
1664567141.825,-112.305,-37.598,-34.668,-151.367,0
1664567141.828,-141.113,-45.898,-35.156,-152.832,0
1664567141.832,-71.289,-42.480,-37.598,-164.062,0
1664567141.836,-28.809,-37.109,-36.133,-166.992,0
1664567141.840,-83.496,-35.645,-31.250,-147.461,0
1664567141.844,-143.066,-38.574,-35.156,-152.344,0
1664567141.846,-81.055,-34.668,-34.180,-163.574,0
1664567141.850,-33.691,-34.668,-35.156,-163.574,0
1664567141.854,-73.730,-39.062,-33.203,-163.086,0
1664567141.858,-131.836,-38.086,-28.320,-153.809,0
1664567141.862,-101.074,-35.156,-30.762,-160.645,0
1664567141.866,-30.273,-40.527,-35.645,-168.457,0
1664567141.870,-51.270,-40.527,-44.922,-162.109,0
1664567141.873,-120.117,-32.227,-46.387,-167.480,0
1664567141.877,-114.258,-27.344,-41.016,-173.340,0
1664567141.881,-43.457,-26.367,-35.156,-189.453,0
1664567141.885,-36.621,-30.273,-36.133,-196.777,0
1664567141.889,-88.867,-34.180,-41.992,-185.547,0
1664567141.937,-115.234,-36.133,-43.945,-184.082,0
1664567141.941,-55.176,-37.109,-37.109,-188.477,0
1664567141.945,-22.949,-36.133,-34.668,-194.824,0
1664567141.949,-78.125,-35.645,-34.668,-202.148,0
1664567141.953,-124.512,-37.598,-34.180,-193.359,0
1664567141.957,-76.172,-43.945,-36.133,-209.473,0
1664567141.961,-35.156,-43.945,-38.086,-235.840,0
1664567141.964,-56.152,-36.133,-41.016,-225.098,0
1664567141.968,-107.910,-38.574,-38.086,-208.008,0
1664567141.972,-98.633,-41.992,-32.715,-211.914,0
1664567141.976,-56.152,-36.133,-40.039,-241.699,0
1664567141.980,-65.918,-39.551,-42.969,-248.535,0
1664567141.951,-115.723,-45.410,-35.645,-227.051,0
1664567141.955,-123.047,-45.410,-36.621,-226.562,0
1664567141.959,-69.336,-48.340,-41.992,-247.070,0
1664567141.963,-55.664,-50.293,-39.551,-231.445,0
1664567141.967,-92.285,-44.434,-36.133,-202.148,0
1664567141.971,-118.164,-46.387,-41.992,-203.613,0
1664567141.975,-65.430,-46.387,-42.969,-207.031,0
1664567141.978,-43.457,-45.410,-40.527,-205.078,0
1664567141.982,-86.426,-46.387,-39.551,-183.594,0
1664567141.986,-132.812,-40.039,-33.691,-161.621,0
1664567141.990,-94.238,-42.969,-38.086,-165.039,0
1664567141.994,-44.922,-47.852,-44.922,-176.270,0
1664567141.998,-56.641,-45.898,-39.062,-154.297,0
1664567142.002,-114.746,-49.316,-40.527,-133.789,0
1664567142.006,-111.328,-48.828,-44.922,-142.090,0
1664567142.010,-45.898,-44.922,-43.945,-149.902,0
1664567142.014,-45.898,-42.969,-44.434,-140.625,0
1664567142.018,-120.605,-44.434,-50.293,-134.277,0
1664567142.022,-136.230,-44.434,-52.246,-138.672,0
1664567142.025,-54.199,-41.992,-49.805,-145.508,0
1664567142.029,-32.715,-43.457,-39.551,-145.020,0
1664567142.033,-97.656,-44.434,-42.969,-147.949,0
1664567142.037,-134.766,-43.945,-43.457,-137.207,0
1664567142.041,-81.543,-46.387,-38.574,-137.695,0
1664567142.056,-46.387,-48.828,-41.016,-161.133,0
1664567142.060,-73.730,-45.898,-42.969,-157.715,0
1664567142.064,-132.324,-41.504,-41.504,-138.672,0
1664567142.068,-108.398,-37.109,-42.969,-137.695,0
1664567142.072,-51.270,-41.504,-44.434,-148.438,0
1664567142.076,-62.500,-49.316,-44.922,-137.695,0
1664567142.080,-117.188,-42.480,-41.504,-125.000,0
1664567142.083,-116.699,-41.016,-38.574,-121.582,0
1664567142.087,-56.152,-48.828,-43.945,-129.883,0
1664567142.091,-56.152,-51.270,-51.758,-139.160,0
1664567142.095,-103.516,-51.758,-48.340,-125.977,0
1664567142.099,-114.258,-55.664,-45.898,-119.629,0
1664567142.086,-52.246,-52.734,-53.223,-128.418,0
1664567142.090,-37.109,-44.434,-57.129,-133.301,0
1664567142.094,-83.984,-51.758,-57.617,-128.418,0
1664567142.098,-122.559,-55.176,-50.293,-118.652,0
1664567142.102,-81.055,-47.852,-45.898,-125.000,0
1664567142.106,-32.227,-47.363,-47.363,-141.113,0
1664567142.110,-66.406,-51.758,-42.969,-138.184,0
1664567142.113,-141.602,-50.781,-44.922,-134.277,0
1664567142.117,-117.676,-50.293,-49.805,-143.555,0
1664567142.121,-48.340,-49.805,-49.316,-147.949,0
1664567142.125,-53.223,-47.852,-43.457,-148.438,0
1664567142.129,-114.746,-47.852,-37.598,-124.512,0
1664567142.132,-130.371,-54.199,-46.387,-150.391,0
1664567142.136,-62.988,-53.223,-46.875,-178.711,0
1664567142.140,-45.410,-48.340,-41.504,-167.969,0
1664567142.144,-103.027,-46.875,-38.086,-158.203,0
1664567142.148,-128.906,-47.363,-38.086,-145.996,0
1664567142.152,-62.012,-42.969,-40.527,-153.320,0
1664567142.156,-36.133,-37.598,-34.668,-156.250,0
1664567142.159,-89.355,-41.016,-37.598,-142.578,0
1664567142.163,-139.160,-40.527,-39.551,-134.766,0
1664567142.167,-90.820,-39.551,-38.086,-132.812,0
1664567142.171,-38.574,-40.527,-41.016,-142.578,0
1664567142.175,-62.012,-41.016,-41.992,-145.020,0
1664567142.177,-122.070,-42.480,-36.133,-125.000,0
1664567142.181,-98.633,-44.434,-29.785,-114.258,0
1664567142.185,-37.598,-48.340,-30.762,-124.023,0
1664567142.189,-50.293,-45.410,-28.809,-136.719,0
1664567142.193,-108.887,-44.922,-27.344,-130.371,0
1664567142.197,-129.883,-52.734,-26.855,-122.559,0
1664567142.201,-68.359,-52.734,-24.902,-118.652,0
1664567142.204,-56.641,-49.805,-30.762,-133.301,0
1664567142.208,-106.445,-43.457,-35.156,-132.324,0
1664567142.212,-141.113,-42.480,-37.109,-122.070,0
1664567142.216,-79.590,-42.969,-38.574,-128.418,0
1664567142.220,-39.551,-39.551,-39.062,-138.184,0
1664567142.223,-91.797,-43.945,-42.969,-135.254,0
1664567142.227,-150.879,-50.293,-42.480,-118.652,0
1664567142.231,-105.957,-45.898,-44.922,-122.559,0
1664567142.235,-54.199,-44.922,-45.898,-139.648,0
1664567142.239,-69.824,-48.340,-44.922,-138.184,0
1664567142.243,-122.559,-40.527,-39.062,-104.980,0
1664567142.247,-130.859,-43.457,-33.691,-109.863,0
1664567142.250,-69.824,-46.875,-34.180,-144.531,0
1664567142.254,-60.547,-41.992,-33.691,-125.000,0
1664567142.258,-111.816,-41.992,-36.621,-113.281,0
1664567142.262,-124.512,-40.527,-38.086,-132.812,0
1664567142.266,-70.312,-40.039,-35.645,-144.531,0
1664567142.283,-49.316,-35.645,-39.062,-143.066,0
1664567142.287,-87.891,-34.668,-41.992,-128.906,0
1664567142.291,-121.582,-40.039,-40.527,-125.977,0
1664567142.295,-75.195,-35.156,-39.551,-138.672,0
1664567142.299,-49.316,-41.016,-40.039,-145.996,0
1664567142.303,-68.359,-51.270,-35.645,-133.301,0
1664567142.307,-128.418,-52.734,-41.016,-128.418,0
1664567142.310,-109.863,-50.781,-48.340,-144.531,0
1664567142.314,-51.270,-48.828,-42.969,-149.414,0
1664567142.318,-69.824,-52.734,-40.039,-139.648,0
1664567142.322,-125.977,-48.828,-39.062,-128.906,0
1664567142.326,-114.258,-47.852,-39.062,-125.977,0
1664567142.328,-45.410,-53.711,-38.574,-130.859,0
1664567142.332,-45.410,-53.711,-39.062,-148.438,0
1664567142.336,-102.051,-44.434,-39.062,-144.043,0
1664567142.340,-122.070,-45.410,-31.738,-121.582,0
1664567142.344,-50.293,-53.223,-29.297,-130.859,0
1664567142.348,-24.902,-54.688,-30.762,-138.672,0
1664567142.352,-78.125,-46.875,-30.273,-118.652,0
1664567142.355,-125.977,-51.270,-32.715,-114.258,0
1664567142.359,-72.754,-54.688,-30.762,-136.230,0
1664567142.363,-29.785,-47.852,-38.086,-158.203,0
1664567142.367,-62.012,-45.898,-41.992,-152.344,0
1664567142.371,-115.234,-43.945,-36.621,-125.000,0
1664567142.373,-87.891,-49.805,-34.668,-114.746,0
1664567142.377,-32.715,-56.152,-39.062,-135.742,0
1664567142.381,-42.969,-55.664,-44.922,-143.066,0
1664567142.385,-97.168,-54.199,-44.434,-125.488,0
1664567142.389,-108.887,-57.129,-43.457,-119.629,0
1664567142.393,-39.551,-61.523,-38.574,-120.117,0
1664567142.397,-20.020,-54.688,-41.016,-128.906,0
1664567142.400,-79.590,-44.434,-37.109,-122.070,0
1664567142.404,-116.211,-48.828,-31.250,-115.234,0
1664567142.408,-62.012,-48.340,-45.410,-136.230,0
1664567142.412,-37.598,-45.410,-49.805,-134.277,0
1664567142.416,-82.031,-49.316,-42.969,-125.488,0
1664567142.417,-119.629,-45.898,-44.434,-129.395,0
1664567142.421,-80.078,-52.734,-48.340,-131.836,0
1664567142.425,-43.945,-55.176,-45.898,-134.277,0
1664567142.429,-66.895,-54.199,-39.551,-116.699,0
1664567142.433,-118.164,-54.688,-39.062,-98.633,0
1664567142.437,-104.004,-50.293,-41.504,-109.375,0
1664567142.441,-37.598,-45.898,-41.016,-127.441,0
1664567142.444,-34.668,-37.598,-34.668,-116.211,0
1664567142.448,-102.539,-33.203,-33.203,-100.586,0
1664567142.452,-119.141,-32.715,-35.156,-109.863,0
1664567142.456,-57.129,-30.762,-31.250,-115.723,0
1664567142.460,-47.363,-35.156,-26.855,-111.328,0
1664567142.463,-92.285,-35.156,-27.832,-93.750,0
1664567142.467,-123.535,-39.062,-37.598,-92.285,0
1664567142.471,-67.383,-44.922,-43.945,-114.258,0
1664567142.475,-32.715,-44.922,-37.109,-119.141,0
1664567142.479,-78.125,-40.039,-35.156,-97.168,0
1664567142.483,-137.207,-37.598,-36.621,-86.914,0
1664567142.487,-106.445,-37.598,-37.109,-108.887,0
1664567142.490,-51.758,-41.504,-40.039,-108.887,0
1664567142.494,-75.195,-40.527,-49.805,-121.582,0
1664567142.498,-128.418,-37.598,-50.781,-114.258,0
1664567142.502,-121.582,-39.062,-47.852,-100.586,0
1664567142.506,-70.312,-36.621,-51.758,-121.094,0
1664567142.507,-75.195,-37.109,-50.293,-120.117,0
1664567142.511,-124.512,-36.133,-42.969,-99.609,0
1664567142.515,-143.066,-33.203,-39.062,-96.680,0
1664567142.519,-93.750,-35.645,-41.504,-116.699,0
1664567142.523,-84.473,-41.016,-41.016,-121.094,0
1664567142.527,-129.883,-43.945,-43.457,-108.398,0
1664567142.531,-180.664,-47.852,-41.992,-111.328,0
1664567142.534,-137.207,-49.316,-41.992,-125.977,0
1664567142.538,-89.844,-41.992,-43.457,-138.184,0
1664567142.542,-113.281,-41.016,-36.133,-113.281,0
1664567142.546,-158.203,-45.410,-32.227,-83.984,0
1664567142.550,-132.324,-48.340,-38.086,-115.234,0
1664567142.553,-71.777,-44.434,-43.457,-130.859,0
1664567142.557,-73.730,-43.945,-39.062,-116.211,0
1664567142.561,-126.465,-43.945,-31.250,-94.727,0
1664567142.565,-124.023,-43.945,-36.133,-92.285,0
1664567142.569,-56.152,-42.480,-39.062,-104.980,0
1664567142.573,-57.617,-49.316,-35.156,-104.004,0
1664567142.577,-103.027,-56.152,-31.250,-78.613,0
1664567142.580,-121.094,-54.199,-36.621,-80.566,0
1664567142.584,-72.266,-52.246,-38.574,-98.145,0
1664567142.588,-41.504,-49.805,-35.645,-99.121,0
1664567142.592,-74.219,-46.875,-34.180,-88.379,0
1664567142.596,-119.141,-41.992,-36.133,-75.684,0
1664567142.613,-78.125,-41.992,-43.945,-91.309,0
1664567142.617,-32.227,-45.410,-47.363,-112.305,0
1664567142.621,-69.336,-42.480,-48.340,-111.328,0
1664567142.625,-131.836,-38.086,-42.969,-84.473,0
1664567142.629,-111.328,-42.480,-40.039,-79.590,0
1664567142.633,-54.199,-44.434,-41.992,-113.770,0
1664567142.637,-67.871,-42.969,-45.410,-115.723,0
1664567142.640,-126.953,-40.039,-48.828,-103.027,0
1664567142.644,-115.723,-33.691,-45.898,-105.469,0
1664567142.648,-49.316,-36.621,-44.434,-104.492,0
1664567142.652,-48.828,-37.598,-43.945,-104.492,0
1664567142.656,-95.703,-35.645,-48.828,-102.051,0
1664567142.659,-123.047,-37.109,-51.758,-93.262,0
1664567142.663,-64.941,-35.645,-47.363,-100.586,0
1664567142.667,-37.109,-33.203,-49.316,-112.793,0
1664567142.671,-92.773,-30.273,-51.270,-104.004,0
1664567142.675,-134.766,-31.738,-47.852,-94.727,0
1664567142.679,-90.820,-35.645,-48.828,-98.633,0
1664567142.683,-50.781,-41.504,-57.617,-115.723,0
1664567142.686,-72.754,-43.457,-59.570,-108.887,0
1664567142.690,-124.023,-39.062,-52.734,-100.098,0
1664567142.694,-107.422,-36.621,-47.852,-99.609,0
1664567142.698,-53.711,-37.598,-57.129,-121.094,0
1664567142.702,-62.988,-35.645,-61.523,-120.117,0
1664567142.702,-107.910,-29.785,-53.223,-97.168,0
1664567142.706,-126.465,-32.227,-51.270,-103.516,0
1664567142.710,-76.172,-39.551,-55.664,-135.254,0
1664567142.714,-58.105,-40.039,-54.688,-148.438,0
1664567142.718,-100.586,-36.133,-48.828,-126.465,0
1664567142.722,-133.789,-35.156,-48.828,-110.352,0
1664567142.726,-86.426,-40.039,-51.270,-121.094,0
1664567142.729,-50.781,-35.645,-53.711,-131.836,0
1664567142.733,-78.613,-32.715,-45.410,-107.422,0
1664567142.737,-125.488,-30.762,-39.551,-89.844,0
1664567142.741,-92.773,-30.273,-40.527,-110.352,0
1664567142.745,-43.457,-38.086,-41.504,-114.746,0
1664567142.749,-64.941,-39.062,-40.039,-112.305,0
1664567142.753,-124.512,-37.109,-41.504,-117.676,0
1664567142.757,-120.605,-34.668,-40.039,-120.605,0
1664567142.761,-66.406,-36.621,-41.016,-130.371,0
1664567142.765,-64.941,-38.086,-45.898,-127.930,0
1664567142.769,-108.887,-36.133,-45.410,-115.723,0
1664567142.773,-108.398,-23.438,-39.551,-109.375,0
1664567142.776,-55.176,-25.879,-39.551,-119.629,0
1664567142.780,-52.246,-40.039,-42.969,-119.629,0
1664567142.784,-98.145,-36.621,-41.016,-115.234,0
1664567142.788,-133.301,-35.645,-41.016,-114.258,0
1664567142.792,-89.355,-40.039,-46.387,-121.582,0
1664567142.792,-54.688,-38.086,-45.410,-128.906,0
1664567142.796,-78.613,-31.250,-39.551,-123.535,0
1664567142.800,-117.676,-32.715,-40.527,-107.910,0
1664567142.804,-98.633,-37.109,-41.016,-108.887,0
1664567142.808,-51.758,-33.691,-41.504,-114.258,0
1664567142.812,-66.406,-37.109,-42.480,-109.375,0
1664567142.816,-125.977,-35.156,-41.504,-115.234,0
1664567142.819,-115.723,-34.668,-38.574,-111.816,0
1664567142.823,-53.223,-41.504,-37.598,-120.605,0
1664567142.827,-66.895,-42.969,-46.387,-144.043,0
1664567142.831,-114.746,-40.527,-48.340,-128.906,0
1664567142.835,-123.535,-39.551,-44.922,-123.047,0
1664567142.838,-64.941,-42.480,-41.016,-136.230,0
1664567142.842,-35.645,-42.480,-40.527,-134.277,0
1664567142.846,-66.895,-39.062,-41.992,-131.348,0
1664567142.850,-120.117,-40.039,-40.039,-119.141,0
1664567142.854,-79.102,-40.527,-38.086,-117.676,0
1664567142.858,-20.508,-33.691,-36.621,-123.047,0
1664567142.862,-51.758,-36.133,-31.250,-110.352,0
1664567142.865,-108.398,-42.480,-22.461,-82.031,0
1664567142.869,-89.844,-40.527,-34.668,-102.051,0
1664567142.873,-37.109,-46.387,-45.410,-128.906,0
1664567142.877,-55.664,-46.387,-43.457,-125.000,0
1664567142.881,-122.070,-42.480,-40.527,-117.676,0
1664567142.883,-118.652,-41.992,-42.480,-115.723,0
1664567142.887,-50.781,-39.062,-50.293,-135.742,0
1664567142.891,-49.316,-40.527,-54.199,-135.742,0
1664567142.895,-107.422,-43.945,-52.734,-126.953,0
1664567142.899,-127.930,-48.340,-52.734,-128.906,0
1664567142.903,-66.895,-43.945,-51.758,-137.207,0
1664567142.907,-34.180,-39.062,-50.781,-137.695,0
1664567142.910,-79.102,-37.109,-55.664,-118.164,0
1664567142.914,-139.648,-41.504,-59.082,-123.047,0
1664567142.918,-93.262,-43.945,-53.711,-131.348,0
1664567142.922,-38.574,-40.527,-47.363,-136.230,0
1664567142.926,-68.848,-41.016,-48.340,-141.602,0
1664567142.927,-116.699,-47.852,-45.898,-130.859,0
1664567142.931,-94.238,-49.316,-41.016,-123.535,0
1664567142.935,-46.387,-47.852,-39.551,-128.418,0
1664567142.939,-46.875,-46.875,-39.062,-127.930,0
1664567142.943,-97.168,-44.434,-38.574,-106.445,0
1664567142.947,-121.094,-48.340,-43.457,-96.680,0
1664567142.951,-52.734,-51.758,-37.109,-113.281,0
1664567142.954,-47.852,-44.922,-36.133,-127.441,0
1664567142.958,-103.516,-43.945,-42.969,-138.184,0
1664567142.962,-124.023,-51.270,-37.598,-120.117,0
1664567142.966,-71.777,-47.852,-37.109,-117.676,0
1664567142.970,-37.109,-47.852,-41.016,-124.023,0
1664567142.972,-67.871,-48.828,-36.621,-113.281,0
1664567142.976,-127.930,-47.852,-30.762,-98.145,0
1664567142.980,-100.098,-51.270,-34.668,-98.145,0
1664567142.984,-42.480,-52.246,-41.016,-118.652,0
1664567142.988,-57.617,-48.340,-38.574,-121.094,0
1664567142.992,-108.887,-53.223,-36.621,-96.191,0
1664567142.996,-107.910,-53.711,-39.551,-89.844,0
1664567142.999,-42.969,-42.969,-39.062,-104.004,0
1664567143.003,-48.828,-45.898,-39.551,-107.910,0
1664567143.007,-110.352,-55.176,-42.969,-95.703,0
1664567143.011,-124.512,-54.688,-42.480,-91.309,0
1664567143.015,-67.871,-54.688,-41.504,-109.863,0
1664567143.033,-49.805,-53.711,-40.527,-119.629,0
1664567143.037,-80.078,-49.805,-41.504,-95.215,0
1664567143.041,-106.934,-46.875,-37.598,-80.078,0
1664567143.045,-62.988,-48.340,-41.016,-90.820,0
1664567143.049,-15.137,-47.363,-41.016,-95.703,0
1664567143.053,-47.852,-46.875,-34.668,-83.008,0
1664567143.057,-111.328,-53.223,-39.062,-80.566,0
1664567143.060,-99.121,-61.035,-46.875,-98.633,0
1664567143.064,-54.688,-66.406,-44.434,-98.633,0
1664567143.068,-60.547,-62.012,-30.762,-73.730,0
1664567143.072,-134.766,-60.059,-34.668,-65.430,0
1664567143.076,-140.625,-57.617,-39.551,-67.383,0
1664567143.078,-65.430,-50.293,-36.133,-77.637,0
1664567143.082,-53.223,-49.805,-39.062,-83.496,0
1664567143.086,-103.027,-54.688,-44.922,-65.918,0
1664567143.090,-121.094,-51.270,-41.016,-43.945,0
1664567143.094,-60.059,-45.898,-34.180,-44.434,0
1664567143.098,-41.504,-46.387,-32.227,-65.918,0
1664567143.102,-88.867,-48.828,-38.086,-57.129,0
1664567143.105,-137.207,-52.246,-41.016,-33.691,0
1664567143.109,-74.707,-45.410,-34.668,-32.715,0
1664567143.113,-36.621,-47.852,-37.598,-46.387,0
1664567143.117,-72.754,-50.781,-45.898,-49.316,0
1664567143.121,-110.840,-41.504,-47.852,-31.250,0
1664567143.123,-89.355,-38.086,-42.480,-41.504,0
1664567143.127,-55.664,-46.875,-41.016,-65.430,0
1664567143.131,-74.219,-46.387,-48.340,-64.941,0
1664567143.135,-113.281,-42.480,-43.945,-31.738,0
1664567143.139,-112.305,-49.805,-41.016,-18.555,0
1664567143.143,-54.688,-47.852,-44.922,-37.109,0
1664567143.147,-43.945,-41.992,-44.922,-48.828,0
1664567143.150,-88.379,-42.480,-48.340,-55.176,0
1664567143.154,-118.164,-39.062,-44.434,-39.551,0
1664567143.158,-72.266,-42.969,-45.410,-62.012,0
1664567143.162,-34.668,-45.410,-43.945,-93.262,0
1664567143.166,-72.266,-36.133,-36.133,-84.961,0
1664567143.167,-130.859,-39.062,-41.016,-71.289,0
1664567143.171,-95.215,-41.992,-43.457,-78.125,0
1664567143.175,-41.016,-38.086,-48.828,-98.145,0
1664567143.179,-58.105,-34.668,-50.293,-89.355,0
1664567143.183,-117.188,-38.086,-47.363,-76.660,0
1664567143.187,-97.168,-42.480,-45.410,-76.660,0
1664567143.191,-35.156,-41.504,-41.992,-94.727,0
1664567143.194,-29.785,-46.875,-36.621,-90.820,0
1664567143.198,-93.262,-49.805,-34.180,-68.359,0
1664567143.202,-129.883,-44.434,-38.574,-73.730,0
1664567143.206,-62.012,-42.480,-42.969,-100.586,0
1664567143.210,-26.855,-40.527,-39.551,-106.445,0
1664567143.213,-68.848,-43.457,-39.551,-93.750,0
1664567143.217,-103.516,-42.480,-43.457,-85.938,0
1664567143.221,-40.527,-39.551,-38.086,-91.797,0
1664567143.225,-1.953,-37.598,-33.203,-100.098,0
1664567143.229,-35.156,-36.621,-33.203,-92.773,0
1664567143.233,-88.379,-41.992,-35.645,-83.496,0
1664567143.237,-67.383,-45.898,-39.551,-83.984,0
1664567143.240,-13.672,-48.340,-38.574,-96.191,0
1664567143.244,-34.180,-45.898,-46.387,-111.328,0
1664567143.248,-92.773,-40.527,-50.781,-90.332,0
1664567143.252,-81.055,-38.574,-47.363,-87.402,0
1664567143.256,-26.855,-39.551,-51.270,-113.281,0
1664567143.258,-30.273,-39.551,-52.246,-110.840,0
1664567143.262,-79.590,-33.691,-44.434,-94.727,0
1664567143.266,-95.215,-37.598,-39.551,-89.844,0
1664567143.270,-37.598,-44.434,-40.527,-93.262,0
1664567143.274,-19.531,-40.527,-37.109,-104.004,0
1664567143.278,-65.430,-39.062,-32.715,-114.746,0
1664567143.282,-95.703,-41.016,-33.203,-96.680,0
1664567143.285,-46.875,-38.574,-42.480,-101.562,0
1664567143.289,-21.973,-37.109,-43.945,-129.883,0
1664567143.293,-51.758,-38.574,-38.086,-120.117,0
1664567143.297,-107.422,-41.992,-40.039,-102.539,0
1664567143.301,-87.402,-40.039,-41.992,-114.258,0
1664567143.314,-25.391,-38.086,-39.551,-135.742,0
1664567143.318,-37.598,-40.039,-33.203,-128.418,0
1664567143.322,-104.980,-40.527,-41.016,-111.328,0
1664567143.326,-109.863,-41.992,-47.852,-107.910,0
1664567143.330,-42.480,-48.340,-46.875,-127.441,0
1664567143.334,-36.621,-48.340,-43.457,-149.902,0
1664567143.338,-85.938,-41.992,-37.598,-125.977,0
1664567143.341,-119.141,-39.062,-41.992,-104.004,0
1664567143.345,-61.523,-38.574,-44.922,-126.953,0
1664567143.349,-30.762,-38.086,-41.016,-141.602,0
1664567143.353,-69.336,-43.457,-43.457,-131.348,0
1664567143.357,-119.629,-50.781,-40.527,-124.512,0
1664567143.363,-94.238,-45.410,-36.621,-133.789,0
1664567143.367,-34.180,-34.180,-33.203,-140.625,0
1664567143.371,-64.941,-39.062,-32.715,-135.742,0
1664567143.375,-129.395,-38.086,-33.203,-121.582,0
1664567143.379,-99.609,-32.715,-27.344,-130.371,0
1664567143.383,-55.664,-46.387,-28.320,-156.250,0
1664567143.387,-74.707,-51.758,-32.227,-157.227,0
1664567143.390,-125.000,-39.551,-32.715,-151.855,0
1664567143.394,-124.512,-32.227,-28.809,-149.414,0
1664567143.398,-55.664,-29.785,-20.996,-150.391,0
1664567143.402,-51.270,-28.320,-22.949,-159.180,0
1664567143.406,-108.887,-27.832,-28.809,-154.297,0
1664567143.408,-130.859,-31.738,-23.926,-141.113,0
1664567143.412,-89.844,-31.250,-20.020,-174.805,0
1664567143.416,-74.219,-24.902,-27.344,-193.848,0
1664567143.420,-99.121,-26.855,-31.250,-162.109,0
1664567143.424,-149.414,-28.320,-26.855,-138.672,0
1664567143.428,-114.258,-30.762,-25.879,-150.391,0
1664567143.432,-55.176,-26.367,-35.645,-165.527,0
1664567143.435,-75.195,-30.273,-44.922,-158.691,0
1664567143.439,-128.418,-37.109,-38.574,-139.160,0
1664567143.443,-115.234,-36.621,-30.762,-120.117,0
1664567143.447,-61.035,-31.250,-32.227,-140.625,0
1664567143.451,-57.129,-31.250,-33.203,-165.039,0
1664567143.467,-95.215,-36.621,-31.250,-140.137,0
1664567143.471,-118.652,-38.086,-34.668,-126.465,0
1664567143.475,-63.477,-36.133,-45.410,-152.832,0
1664567143.479,-44.434,-37.109,-44.434,-149.902,0
1664567143.483,-83.008,-41.992,-38.086,-129.883,0
1664567143.487,-120.117,-41.992,-39.551,-124.023,0
1664567143.491,-76.172,-35.645,-43.457,-133.301,0
1664567143.494,-33.203,-40.527,-44.922,-152.832,0
1664567143.498,-58.105,-49.805,-42.480,-134.766,0
1664567143.502,-118.164,-48.828,-44.434,-120.117,0
1664567143.506,-102.051,-49.805,-48.828,-139.160,0
1664567143.510,-43.457,-52.734,-49.316,-154.785,0
1664567143.498,-44.922,-52.246,-48.340,-152.832,0
1664567143.502,-108.398,-51.758,-48.340,-134.766,0
1664567143.506,-114.746,-46.387,-52.246,-132.812,0
1664567143.510,-36.621,-45.898,-49.316,-154.297,0
1664567143.514,-29.785,-49.805,-45.898,-147.949,0
1664567143.518,-92.773,-50.781,-45.410,-123.047,0
1664567143.522,-115.234,-46.875,-44.434,-135.254,0
1664567143.525,-46.875,-42.969,-43.457,-154.785,0
1664567143.529,-24.414,-46.875,-36.621,-146.484,0
1664567143.533,-81.055,-39.062,-34.668,-124.512,0
1664567143.537,-125.000,-38.574,-43.945,-125.000,0
1664567143.541,-74.707,-47.852,-44.922,-139.648,0
1664567143.542,-32.715,-48.340,-41.016,-140.625,0
1664567143.546,-57.129,-45.898,-48.828,-151.367,0
1664567143.550,-105.469,-46.387,-47.363,-141.602,0
1664567143.554,-83.008,-48.340,-42.969,-130.371,0
1664567143.558,-31.250,-48.828,-44.922,-144.043,0
1664567143.562,-49.316,-53.223,-40.039,-136.230,0
1664567143.566,-104.492,-53.223,-39.062,-115.723,0
1664567143.569,-100.098,-49.316,-41.016,-114.746,0
1664567143.573,-36.133,-46.875,-45.898,-124.512,0
1664567143.577,-34.180,-42.480,-47.852,-125.000,0
1664567143.581,-86.914,-39.062,-43.945,-106.445,0
1664567143.585,-109.863,-39.062,-48.340,-103.027,0
1664567143.587,-49.316,-41.992,-47.852,-107.422,0
1664567143.591,-26.855,-47.363,-43.457,-114.258,0
1664567143.595,-84.961,-47.363,-45.410,-107.422,0
1664567143.599,-141.113,-44.922,-40.527,-96.191,0
1664567143.603,-85.449,-47.363,-29.785,-105.469,0
1664567143.607,-38.086,-47.852,-29.785,-128.418,0
1664567143.611,-66.895,-42.480,-32.227,-116.211,0
1664567143.614,-115.723,-42.480,-20.508,-83.496,0
1664567143.618,-104.004,-44.434,-21.973,-105.469,0
1664567143.622,-35.645,-49.805,-31.250,-135.254,0
1664567143.626,-37.109,-53.711,-33.691,-138.184,0
1664567143.630,-109.375,-47.852,-38.574,-135.254,0
1664567143.633,-121.582,-44.922,-38.574,-124.512,0
1664567143.637,-55.176,-43.945,-34.668,-127.441,0
1664567143.641,-35.645,-42.969,-38.086,-127.441,0
1664567143.645,-94.727,-41.016,-38.086,-129.395,0
1664567143.649,-127.930,-39.062,-37.109,-118.164,0
1664567143.653,-59.570,-39.062,-33.691,-112.305,0
1664567143.657,-32.715,-46.387,-33.203,-112.305,0
1664567143.660,-71.777,-48.340,-38.574,-108.398,0
1664567143.664,-124.023,-44.434,-34.668,-117.188,0
1664567143.668,-85.449,-41.992,-29.785,-115.723,0
1664567143.672,-29.785,-41.992,-30.762,-129.883,0
1664567143.676,-54.688,-39.062,-27.832,-130.859,0
1664567143.677,-112.305,-38.086,-21.484,-99.121,0
1664567143.681,-101.562,-42.969,-31.250,-105.957,0
1664567143.685,-49.316,-49.805,-40.527,-136.230,0
1664567143.689,-59.570,-51.270,-34.668,-155.762,0
1664567143.693,-108.398,-48.340,-34.180,-134.766,0
1664567143.697,-114.258,-42.969,-31.250,-108.887,0
1664567143.701,-50.293,-46.387,-30.273,-126.465,0
1664567143.704,-34.668,-51.270,-40.039,-144.043,0
1664567143.708,-83.008,-50.293,-41.504,-135.742,0
1664567143.712,-126.953,-52.734,-38.086,-113.281,0
1664567143.716,-77.637,-51.758,-37.598,-120.117,0
1664567143.720,-39.062,-48.340,-42.480,-137.207,0
1664567143.722,-75.195,-47.363,-39.062,-120.117,0
1664567143.726,-125.977,-48.340,-35.156,-102.051,0
1664567143.730,-94.238,-46.875,-36.621,-110.840,0
1664567143.734,-42.480,-46.387,-37.598,-125.488,0
1664567143.738,-58.105,-43.457,-39.062,-127.441,0
1664567143.742,-112.305,-41.016,-34.180,-109.863,0
1664567143.746,-113.770,-41.992,-32.227,-104.980,0
1664567143.749,-58.594,-43.945,-39.062,-125.000,0
1664567143.753,-50.781,-40.527,-37.598,-124.512,0
1664567143.757,-94.238,-39.062,-30.273,-91.797,0
1664567143.761,-131.348,-44.922,-32.227,-89.355,0
1664567143.765,-82.031,-45.410,-40.039,-121.582,0
1664567143.783,-45.898,-40.039,-29.297,-125.000,0
1664567143.787,-94.727,-42.969,-23.926,-97.656,0
1664567143.791,-156.738,-50.293,-39.062,-97.656,0
1664567143.795,-105.469,-40.527,-38.086,-120.605,0
1664567143.799,-70.801,-38.574,-36.133,-137.695,0
1664567143.803,-101.074,-42.480,-32.715,-130.859,0
1664567143.807,-160.156,-41.504,-26.367,-130.859,0
1664567143.810,-159.668,-29.785,-24.902,-149.902,0
1664567143.814,-111.816,-31.738,-35.645,-168.945,0
1664567143.818,-110.840,-38.086,-29.297,-162.598,0
1664567143.822,-163.574,-26.367,-20.508,-153.809,0
1664567143.826,-180.176,-14.160,-18.555,-170.898,0
1664567143.828,-134.766,-4.883,-16.602,-196.289,0
1664567143.832,-146.484,-6.836,-18.066,-226.074,0
1664567143.836,-195.312,-5.371,-20.020,-222.168,0
1664567143.840,-223.145,-3.418,-27.344,-208.008,0
1664567143.844,-180.664,-5.859,-32.227,-224.121,0
1664567143.848,-155.273,-4.883,-23.438,-248.535,0
1664567143.852,-206.055,0.000,-20.508,-257.324,0
1664567143.855,-270.508,2.930,-28.320,-262.207,0
1664567143.859,-239.746,1.465,-26.855,-264.160,0
1664567143.863,-196.289,2.441,-20.508,-272.461,0
1664567143.867,-221.191,8.301,-27.832,-283.691,0
1664567143.871,-274.902,4.395,-31.250,-253.906,0
1664567143.873,-250.977,2.441,-26.855,-248.535,0
1664567143.877,-192.383,5.371,-35.156,-296.875,0
1664567143.881,-209.473,3.906,-35.156,-312.012,0
1664567143.885,-257.812,-6.836,-25.879,-293.457,0
1664567143.889,-259.277,-10.254,-32.227,-282.715,0
1664567143.893,-183.594,-2.930,-33.203,-270.996,0
1664567143.897,-155.762,1.465,-32.715,-246.582,0
1664567143.900,-199.219,-1.953,-41.992,-231.445,0
1664567143.904,-224.121,-7.812,-36.621,-228.516,0
1664567143.908,-171.875,-15.625,-38.574,-235.352,0
1664567143.912,-134.277,-22.949,-44.922,-235.352,0
1664567143.916,-152.832,-26.855,-42.480,-200.195,0
1664567143.918,-191.895,-26.855,-46.387,-168.457,0
1664567143.922,-152.344,-28.320,-47.852,-177.734,0
1664567143.926,-81.543,-31.738,-39.551,-183.594,0
1664567143.930,-69.824,-34.180,-36.133,-155.762,0
1664567143.934,-117.188,-42.969,-43.457,-112.305,0
1664567143.938,-106.934,-44.922,-51.270,-99.121,0
1664567143.942,-27.832,-44.922,-46.875,-105.957,0
1664567143.945,-17.578,-52.246,-33.691,-80.566,0
1664567143.949,-84.473,-54.688,-36.133,-50.781,0
1664567143.953,-122.559,-61.523,-41.504,-54.199,0
1664567143.957,-61.523,-60.547,-37.109,-58.105,0
1664567143.961,-29.785,-59.082,-35.156,-43.945,0
1664567143.962,-76.660,-62.012,-41.992,-54.688,0
1664567143.966,-106.934,-63.477,-41.992,-57.129,0
1664567143.970,-41.992,-63.477,-40.527,-55.176,0
1664567143.974,-1.953,-62.500,-41.016,-64.453,0
1664567143.978,-23.926,-61.523,-45.410,-43.945,0
1664567143.982,-63.477,-68.359,-53.223,-32.227,0
1664567143.986,-45.898,-73.242,-53.223,-46.387,0
1664567143.989,1.465,-68.359,-47.852,-42.480,0
1664567143.993,-16.602,-66.406,-50.781,-51.270,0
1664567143.997,-67.871,-62.988,-46.387,-43.945,0
1664567144.001,-67.383,-61.035,-38.086,-34.668,0
1664567144.005,-9.277,-61.523,-33.203,-53.223,0
1664567144.023,5.859,-61.035,-35.156,-54.688,0
1664567144.027,-38.574,-56.152,-40.039,-41.504,0
1664567144.031,-61.523,-54.688,-36.621,-32.715,0
1664567144.035,-7.812,-60.547,-38.574,-48.828,0
1664567144.039,15.137,-59.082,-36.621,-61.035,0
1664567144.043,-29.297,-57.129,-29.785,-46.387,0
1664567144.047,-79.102,-55.176,-29.297,-55.664,0
1664567144.050,-38.574,-56.641,-31.738,-58.594,0
1664567144.054,9.766,-55.176,-36.133,-67.871,0
1664567144.058,-12.695,-49.805,-38.086,-70.801,0
1664567144.062,-65.918,-54.688,-31.738,-37.109,0
1664567144.066,-55.176,-61.523,-37.109,-46.875,0
1664567144.052,5.859,-58.594,-40.039,-72.754,0
1664567144.056,8.789,-51.270,-31.738,-66.406,0
1664567144.060,-59.570,-51.270,-30.762,-53.223,0
1664567144.064,-77.637,-54.688,-33.691,-52.734,0
1664567144.068,-13.672,-53.711,-32.227,-69.824,0
1664567144.072,-0.977,-50.293,-31.250,-64.941,0
1664567144.076,-48.828,-49.805,-27.832,-42.969,0
1664567144.079,-79.590,-52.734,-28.809,-59.570,0
1664567144.083,-37.109,-51.758,-33.203,-73.730,0
1664567144.087,-15.625,-56.641,-35.645,-72.266,0
1664567144.091,-41.504,-59.570,-25.391,-67.871,0
1664567144.095,-88.867,-48.828,-23.438,-66.406,0
1664567144.113,-48.828,-46.387,-24.414,-71.289,0
1664567144.117,3.906,-51.270,-23.926,-84.473,0
1664567144.121,-27.832,-54.199,-33.203,-86.426,0
1664567144.125,-82.031,-49.316,-41.016,-73.730,0
1664567144.129,-59.082,-42.969,-35.156,-70.312,0
1664567144.133,4.395,-41.992,-28.320,-69.824,0
1664567144.137,-8.789,-45.410,-33.203,-69.824,0
1664567144.140,-59.082,-43.457,-29.785,-61.035,0
1664567144.144,-69.824,-42.480,-25.391,-57.129,0
1664567144.148,-19.531,-45.410,-21.973,-71.777,0
1664567144.152,-6.836,-47.852,-21.484,-88.867,0
1664567144.156,-64.941,-47.852,-24.414,-80.566,0
1664567144.158,-106.934,-46.387,-16.602,-60.059,0
1664567144.162,-43.945,-47.852,-18.555,-57.617,0
1664567144.166,-9.277,-43.945,-29.785,-79.102,0
1664567144.170,-51.758,-41.016,-31.250,-91.797,0
1664567144.174,-100.098,-42.480,-32.227,-73.730,0
1664567144.178,-62.988,-42.969,-29.297,-72.754,0
1664567144.182,-17.090,-40.527,-31.738,-87.891,0
1664567144.185,-38.574,-35.645,-34.668,-83.496,0
1664567144.189,-86.914,-31.250,-29.785,-69.824,0
1664567144.193,-79.102,-32.227,-23.438,-54.199,0
1664567144.197,-28.809,-33.691,-30.762,-77.148,0
1664567144.201,-28.320,-29.785,-35.645,-99.121,0
1664567144.203,-85.449,-27.832,-35.156,-86.426,0
1664567144.207,-104.492,-30.273,-36.133,-75.195,0
1664567144.211,-50.781,-29.785,-38.574,-94.727,0
1664567144.215,-27.832,-29.297,-35.645,-103.516,0
1664567144.219,-55.176,-32.715,-30.762,-84.473,0
1664567144.223,-99.121,-32.227,-28.809,-75.684,0
1664567144.227,-65.918,-35.645,-32.227,-78.613,0
1664567144.230,-27.344,-41.504,-38.086,-97.656,0
1664567144.234,-61.035,-43.457,-35.156,-102.539,0
1664567144.238,-114.258,-47.363,-36.621,-80.566,0
1664567144.242,-89.355,-39.551,-39.551,-87.402,0
1664567144.246,-28.320,-36.133,-33.691,-96.680,0
1664567144.248,-41.992,-39.062,-24.902,-82.031,0
1664567144.252,-114.258,-39.062,-26.367,-72.754,0
1664567144.256,-110.352,-37.598,-30.762,-79.102,0
1664567144.260,-37.109,-31.738,-27.832,-88.867,0
1664567144.264,-38.086,-41.016,-27.344,-90.820,0
1664567144.268,-93.262,-47.363,-32.227,-79.102,0
1664567144.272,-118.164,-41.504,-32.227,-81.055,0
1664567144.275,-58.594,-41.504,-35.156,-98.145,0
1664567144.279,-26.855,-36.621,-33.691,-77.637,0
1664567144.283,-87.891,-34.668,-35.645,-84.961,0
1664567144.287,-143.066,-38.086,-35.156,-83.984,0
1664567144.291,-92.285,-41.992,-34.180,-79.590,0
1664567144.293,-44.922,-44.434,-39.062,-92.285,0
1664567144.297,-59.082,-40.527,-31.738,-81.055,0
1664567144.301,-106.445,-36.621,-28.320,-65.918,0
1664567144.305,-88.379,-38.574,-30.762,-61.523,0
1664567144.309,-23.438,-37.598,-29.785,-71.777,0
1664567144.313,-31.250,-32.715,-29.297,-84.473,0
1664567144.317,-97.168,-30.273,-28.320,-84.473,0
1664567144.320,-104.980,-29.785,-25.879,-72.754,0
1664567144.324,-41.992,-32.227,-28.809,-78.125,0
1664567144.328,-25.391,-26.367,-33.203,-89.844,0
1664567144.332,-72.266,-24.902,-30.762,-80.566,0
1664567144.336,-109.863,-28.809,-28.320,-57.129,0
1664567144.337,-55.664,-28.320,-29.785,-65.918,0
1664567144.341,-8.789,-27.344,-29.297,-98.633,0
1664567144.345,-59.570,-33.203,-23.438,-83.008,0
1664567144.349,-126.465,-38.574,-21.484,-59.570,0
1664567144.353,-75.195,-32.715,-25.391,-68.359,0
1664567144.357,-27.832,-34.180,-28.320,-85.449,0
1664567144.361,-54.199,-38.086,-24.902,-78.125,0
1664567144.364,-97.656,-39.551,-28.320,-48.828,0
1664567144.368,-97.168,-40.039,-35.645,-69.336,0
1664567144.372,-41.992,-40.039,-36.133,-100.098,0
1664567144.376,-38.086,-37.109,-34.180,-94.727,0
1664567144.380,-108.887,-37.109,-40.527,-75.684,0
1664567144.382,-129.395,-44.922,-46.387,-83.496,0
1664567144.386,-51.270,-43.945,-40.039,-106.934,0
1664567144.390,-45.898,-44.922,-38.086,-104.004,0
1664567144.394,-112.305,-48.828,-40.527,-90.820,0
1664567144.398,-133.789,-43.945,-40.527,-92.773,0
1664567144.402,-68.359,-44.922,-42.480,-93.262,0
1664567144.406,-33.203,-43.457,-42.969,-94.238,0
1664567144.409,-73.242,-42.969,-46.875,-94.238,0
1664567144.413,-129.395,-41.504,-41.992,-80.566,0
1664567144.417,-95.703,-35.645,-40.527,-86.426,0
1664567144.421,-37.109,-40.039,-42.480,-91.797,0
1664567144.425,-66.406,-45.410,-44.922,-87.402,0
1664567144.428,-128.418,-42.969,-41.504,-71.289,0
1664567144.432,-112.793,-43.457,-36.133,-66.895,0
1664567144.436,-44.922,-50.293,-40.039,-86.914,0
1664567144.440,-47.363,-48.828,-39.062,-88.379,0
1664567144.444,-111.816,-41.992,-35.156,-72.754,0
1664567144.448,-122.559,-43.457,-34.668,-66.406,0
1664567144.452,-49.805,-44.434,-29.297,-69.824,0
1664567144.455,-43.945,-42.969,-33.203,-80.566,0
1664567144.459,-91.797,-41.992,-38.086,-76.660,0
1664567144.463,-124.512,-41.504,-31.250,-47.363,0
1664567144.467,-70.312,-42.969,-27.344,-38.574,0
1664567144.471,-24.902,-42.969,-34.668,-73.730,0
1664567144.472,-66.895,-43.457,-42.480,-79.102,0
1664567144.476,-110.840,-43.945,-38.574,-53.223,0
1664567144.480,-88.867,-39.062,-31.250,-62.500,0
1664567144.484,-35.645,-38.086,-26.855,-83.008,0
1664567144.488,-42.480,-36.133,-24.902,-81.543,0
1664567144.492,-95.703,-36.133,-22.949,-68.359,0
1664567144.496,-89.844,-38.086,-30.273,-63.965,0
1664567144.499,-34.180,-35.156,-42.969,-79.590,0
1664567144.503,-25.391,-40.527,-42.480,-81.055,0
1664567144.507,-72.266,-43.457,-34.180,-54.688,0
1664567144.511,-105.469,-44.434,-32.227,-51.270,0
1664567144.515,-49.316,-41.992,-35.156,-78.613,0
1664567144.533,-14.160,-33.691,-35.645,-85.938,0
1664567144.537,-52.734,-32.715,-29.785,-57.129,0
1664567144.541,-112.793,-38.086,-33.203,-36.133,0
1664567144.545,-78.613,-40.527,-40.039,-66.895,0
1664567144.549,-33.203,-38.574,-36.133,-94.727,0
1664567144.553,-53.711,-35.156,-31.250,-83.496,0
1664567144.557,-113.281,-33.203,-30.762,-74.219,0
1664567144.560,-99.121,-38.086,-32.227,-96.191,0
1664567144.564,-32.715,-36.621,-27.832,-111.816,0
1664567144.568,-46.387,-35.645,-20.020,-95.703,0
1664567144.572,-125.977,-37.598,-27.344,-101.562,0
1664567144.576,-131.836,-35.156,-33.691,-111.328,0
1664567144.579,-65.430,-32.715,-30.273,-114.258,0
1664567144.583,-54.688,-31.250,-30.762,-118.164,0
1664567144.587,-104.980,-25.879,-31.250,-115.723,0
1664567144.591,-143.066,-30.762,-31.738,-106.445,0
1664567144.595,-80.078,-39.062,-35.645,-122.559,0
1664567144.599,-45.898,-38.574,-34.668,-124.512,0
1664567144.603,-84.961,-38.574,-40.039,-116.211,0
1664567144.606,-127.930,-38.086,-41.504,-116.699,0
1664567144.610,-79.590,-39.062,-35.156,-110.352,0
1664567144.614,-28.320,-41.016,-39.062,-123.535,0
1664567144.618,-51.758,-32.227,-41.016,-128.418,0
1664567144.622,-103.516,-34.180,-41.504,-102.539,0
1664567144.638,-89.844,-39.062,-41.992,-93.750,0
1664567144.642,-21.973,-34.668,-42.480,-118.164,0
1664567144.646,-30.762,-31.738,-47.852,-128.906,0
1664567144.650,-80.078,-30.762,-46.875,-103.516,0
1664567144.654,-78.613,-33.203,-39.551,-92.285,0
1664567144.658,-37.109,-38.574,-37.598,-108.887,0
1664567144.662,-38.574,-34.180,-40.527,-115.234,0
1664567144.665,-74.707,-29.297,-40.039,-97.168,0
1664567144.669,-104.492,-36.133,-32.227,-76.660,0
1664567144.673,-60.059,-35.645,-36.621,-89.844,0
1664567144.677,-17.578,-36.621,-43.457,-99.609,0
1664567144.681,-54.688,-38.574,-41.992,-104.980,0
1664567144.668,-131.348,-40.039,-42.969,-97.168,0
1664567144.672,-97.656,-44.922,-49.316,-92.285,0
1664567144.676,-35.156,-38.574,-48.828,-108.398,0
1664567144.680,-50.781,-39.551,-45.410,-104.492,0
1664567144.684,-110.352,-45.410,-48.340,-83.008,0
1664567144.688,-98.633,-40.039,-44.434,-82.031,0
1664567144.692,-25.391,-37.109,-40.039,-94.727,0
1664567144.695,-33.691,-37.598,-44.434,-103.027,0
1664567144.699,-105.957,-40.527,-50.781,-92.773,0
1664567144.703,-127.930,-42.969,-49.316,-79.590,0
1664567144.707,-52.734,-38.574,-43.457,-86.426,0
1664567144.711,-24.902,-41.504,-41.992,-83.496,0
1664567144.713,-87.402,-43.457,-44.922,-70.801,0
1664567144.717,-134.766,-37.598,-44.922,-62.988,0
1664567144.721,-75.684,-41.504,-42.480,-64.453,0
1664567144.725,-28.809,-41.992,-46.875,-86.426,0
1664567144.729,-65.918,-41.992,-50.293,-85.449,0
1664567144.733,-115.234,-41.504,-44.434,-65.430,0
1664567144.737,-89.355,-38.086,-38.574,-60.547,0
1664567144.740,-40.039,-41.016,-37.109,-63.965,0
1664567144.744,-62.988,-42.969,-42.480,-77.637,0
1664567144.748,-123.535,-44.434,-45.410,-67.871,0
1664567144.752,-115.723,-45.410,-48.828,-62.012,0
1664567144.756,-58.594,-37.598,-53.711,-76.660,0
1664567144.773,-63.477,-39.062,-54.199,-74.707,0
1664567144.777,-108.887,-40.527,-54.199,-49.805,0
1664567144.781,-131.348,-40.039,-48.828,-31.738,0
1664567144.785,-67.871,-41.504,-44.922,-43.945,0
1664567144.789,-46.875,-40.527,-49.805,-48.340,0
1664567144.793,-93.262,-41.016,-46.875,-39.062,0
1664567144.797,-138.672,-40.527,-40.039,-33.203,0
1664567144.800,-110.840,-45.410,-41.992,-25.391,0
1664567144.804,-59.570,-40.039,-44.434,-38.574,0
1664567144.808,-74.219,-37.109,-41.992,-41.992,0
1664567144.812,-125.977,-40.527,-36.621,-14.160,0
1664567144.816,-96.191,-39.062,-36.621,-5.859,0
1664567144.802,-40.527,-34.668,-39.062,-6.348,0
1664567144.806,-42.480,-33.691,-28.809,7.324,0
1664567144.810,-101.074,-41.992,-21.484,24.414,0
1664567144.814,-108.398,-43.945,-25.391,26.855,0
1664567144.818,-40.527,-38.574,-25.879,8.789,0
1664567144.822,-29.297,-37.598,-24.902,-0.488,0
1664567144.826,-69.824,-35.156,-26.367,21.973,0
1664567144.829,-99.121,-33.691,-29.297,21.484,0
1664567144.833,-45.410,-35.156,-32.227,-2.441,0
1664567144.837,-9.766,-36.621,-34.180,-1.953,0
1664567144.841,-39.062,-39.062,-31.250,6.836,0
1664567144.845,-99.121,-38.086,-35.156,1.465,0
1664567144.847,-66.406,-32.715,-38.574,-11.230,0
1664567144.851,-18.555,-31.738,-28.809,-23.926,0
1664567144.855,-51.270,-33.691,-26.367,-17.578,0
1664567144.859,-110.840,-38.086,-34.180,-3.906,0
1664567144.863,-104.980,-44.922,-33.203,-6.836,0
1664567144.867,-44.434,-43.945,-29.785,-22.461,0
1664567144.871,-44.434,-44.922,-33.203,-36.133,0
1664567144.874,-102.051,-40.527,-33.203,-32.227,0
1664567144.878,-111.816,-39.062,-32.715,-19.043,0
1664567144.882,-43.457,-44.922,-31.738,-32.715,0
1664567144.886,-32.227,-39.551,-28.809,-58.105,0
1664567144.890,-76.660,-33.691,-31.738,-61.035,0
1664567144.908,-126.465,-43.457,-32.227,-49.316,0
1664567144.912,-83.496,-47.852,-30.273,-45.410,0
1664567144.916,-48.340,-42.480,-31.250,-75.195,0
1664567144.920,-97.656,-39.062,-35.645,-90.332,0
1664567144.924,-136.230,-39.062,-32.715,-56.152,0
1664567144.928,-91.309,-42.969,-30.762,-60.547,0
1664567144.932,-58.105,-46.387,-38.086,-97.168,0
1664567144.935,-88.379,-37.598,-39.551,-103.027,0
1664567144.939,-128.906,-32.227,-38.086,-85.938,0
1664567144.943,-116.699,-39.062,-35.645,-76.172,0
1664567144.947,-68.359,-36.621,-39.551,-118.164,0
1664567144.951,-70.312,-36.621,-38.574,-142.090,0
1664567144.953,-120.605,-38.086,-29.297,-113.281,0
1664567144.957,-132.812,-35.156,-28.320,-95.215,0
1664567144.961,-75.195,-37.598,-37.109,-120.117,0
1664567144.965,-65.430,-41.504,-37.598,-132.324,0
1664567144.969,-98.145,-39.062,-29.785,-119.629,0
1664567144.973,-131.836,-35.156,-27.832,-118.164,0
1664567144.977,-83.496,-34.668,-32.227,-133.301,0
1664567144.980,-42.480,-34.668,-36.133,-154.785,0
1664567144.984,-67.871,-41.016,-35.156,-146.484,0
1664567144.988,-116.211,-47.852,-37.109,-121.582,0
1664567144.992,-100.098,-43.457,-35.645,-151.367,0
1664567144.996,-39.062,-37.109,-33.203,-179.199,0
1664567145.013,-50.781,-37.598,-35.156,-170.410,0
1664567145.017,-111.816,-40.039,-29.297,-141.602,0
1664567145.021,-115.723,-41.504,-29.785,-141.602,0
1664567145.025,-48.340,-36.621,-35.645,-173.828,0
1664567145.029,-35.645,-40.039,-33.203,-168.945,0
1664567145.033,-87.402,-47.363,-36.621,-153.809,0
1664567145.037,-118.652,-42.480,-39.062,-147.461,0
1664567145.040,-75.684,-40.527,-36.133,-157.227,0
1664567145.044,-35.156,-42.480,-32.227,-154.785,0
1664567145.048,-76.660,-41.016,-36.621,-151.367,0
1664567145.052,-138.672,-44.434,-42.480,-150.391,0
1664567145.056,-89.355,-42.969,-40.039,-161.133,0
1664567145.043,-38.086,-36.621,-36.621,-182.129,0
1664567145.047,-64.941,-39.551,-40.527,-174.316,0
1664567145.051,-108.398,-41.016,-39.551,-153.320,0
1664567145.055,-84.961,-43.457,-40.527,-154.297,0
1664567145.059,-30.762,-40.527,-39.062,-170.898,0
1664567145.063,-38.574,-30.273,-32.715,-172.852,0
1664567145.067,-92.285,-28.320,-32.715,-150.391,0
1664567145.070,-93.262,-31.250,-31.738,-140.625,0
1664567145.074,-37.598,-32.715,-34.180,-166.504,0
1664567145.078,-40.039,-34.180,-36.621,-178.223,0
1664567145.082,-78.613,-31.738,-30.762,-157.715,0
1664567145.086,-90.332,-30.273,-20.508,-115.234,0
1664567145.088,-53.223,-35.645,-31.738,-131.348,0
1664567145.092,-34.668,-36.133,-42.969,-156.250,0
1664567145.096,-65.918,-36.133,-34.668,-139.648,0
1664567145.100,-108.398,-36.621,-30.762,-132.812,0
1664567145.104,-74.219,-39.062,-33.691,-151.367,0
1664567145.108,-23.438,-41.992,-30.273,-170.410,0
1664567145.112,-29.785,-39.551,-21.973,-151.855,0
1664567145.115,-87.402,-39.551,-21.973,-125.000,0
1664567145.119,-94.727,-39.551,-31.250,-153.809,0
1664567145.123,-35.156,-35.156,-36.133,-173.828,0
1664567145.127,-37.109,-32.715,-33.691,-166.504,0
1664567145.131,-92.285,-38.086,-32.227,-159.180,0
1664567145.132,-94.238,-43.945,-31.738,-153.320,0
1664567145.136,-38.574,-44.922,-27.344,-172.363,0
1664567145.140,-28.809,-47.852,-29.297,-183.594,0
1664567145.144,-66.895,-44.922,-38.086,-164.062,0
1664567145.148,-94.727,-38.574,-41.016,-135.254,0
1664567145.152,-52.734,-36.621,-37.598,-162.109,0
1664567145.156,-15.137,-33.691,-30.762,-175.781,0
1664567145.159,-44.922,-36.133,-30.762,-155.762,0
1664567145.163,-103.027,-38.086,-39.062,-155.273,0
1664567145.167,-75.684,-37.109,-40.527,-153.809,0
1664567145.171,-21.484,-42.480,-37.598,-164.551,0
1664567145.175,-43.945,-43.945,-39.062,-172.363,0
1664567145.178,-101.074,-47.363,-41.504,-159.180,0
1664567145.182,-94.238,-54.199,-37.598,-142.578,0
1664567145.186,-30.762,-51.758,-32.715,-157.715,0
1664567145.190,-25.879,-44.434,-34.668,-169.434,0
1664567145.194,-80.566,-45.410,-38.574,-154.297,0
1664567145.198,-94.727,-45.898,-37.109,-132.324,0
1664567145.202,-32.227,-47.852,-36.133,-127.441,0
1664567145.205,-21.973,-49.316,-44.434,-165.527,0
1664567145.209,-58.105,-48.340,-41.992,-164.551,0
1664567145.213,-90.820,-46.875,-32.715,-125.000,0
1664567145.217,-60.059,-46.387,-33.203,-127.930,0
1664567145.221,-29.785,-49.805,-41.504,-164.062,0
1664567145.222,-55.664,-52.246,-43.457,-159.180,0
1664567145.226,-104.980,-49.316,-37.109,-128.418,0
1664567145.230,-85.938,-52.246,-34.668,-126.465,0
1664567145.234,-36.621,-59.082,-31.250,-144.043,0
1664567145.238,-34.180,-55.664,-28.809,-145.508,0
1664567145.242,-84.473,-47.852,-39.551,-125.488,0
1664567145.246,-91.797,-46.387,-55.176,-130.371,0
1664567145.249,-31.738,-42.480,-56.641,-157.227,0
1664567145.253,-20.996,-33.203,-46.875,-149.902,0
1664567145.257,-57.617,-27.344,-36.133,-107.910,0
1664567145.261,-90.820,-31.250,-34.668,-94.727,0
1664567145.265,-40.527,-36.621,-42.969,-131.348,0
1664567145.297,0.977,-34.180,-39.062,-133.789,0
1664567145.301,-32.715,-39.062,-38.086,-120.605,0
1664567145.305,-87.891,-43.945,-42.969,-112.793,0
1664567145.309,-59.082,-40.039,-41.504,-123.047,0
1664567145.313,-13.184,-39.551,-36.133,-158.691,0
1664567145.317,-34.668,-36.133,-32.715,-145.020,0
1664567145.321,-86.426,-33.203,-39.062,-121.582,0
1664567145.324,-72.266,-32.227,-38.574,-137.207,0
1664567145.328,-15.625,-38.574,-27.344,-148.926,0
1664567145.332,-25.879,-44.434,-20.508,-140.625,0
1664567145.336,-83.984,-42.480,-30.273,-146.973,0
1664567145.340,-102.539,-45.898,-36.133,-159.180,0
1664567145.328,-54.199,-44.434,-33.691,-169.922,0
1664567145.332,-38.574,-44.434,-31.738,-171.387,0
1664567145.336,-88.867,-39.551,-33.203,-176.758,0
1664567145.340,-129.395,-38.574,-35.645,-175.293,0
1664567145.344,-77.637,-44.922,-34.668,-179.688,0
1664567145.348,-41.504,-40.039,-36.133,-188.965,0
1664567145.352,-68.359,-38.574,-35.645,-180.176,0
1664567145.355,-120.117,-41.016,-35.645,-167.969,0
1664567145.359,-84.961,-41.992,-37.598,-171.875,0
1664567145.363,-27.832,-41.016,-39.551,-184.082,0
1664567145.367,-51.758,-40.527,-39.551,-173.828,0
1664567145.371,-99.609,-41.504,-37.109,-154.297,0
1664567145.371,-86.914,-45.410,-40.039,-150.879,0
1664567145.375,-47.363,-52.246,-49.316,-169.434,0
1664567145.379,-57.129,-45.410,-51.758,-180.176,0
1664567145.383,-100.098,-41.016,-48.340,-153.809,0
1664567145.387,-118.652,-43.457,-43.945,-134.766,0
1664567145.391,-51.270,-37.598,-42.480,-140.625,0
1664567145.395,-28.320,-36.621,-43.945,-166.992,0
1664567145.398,-74.219,-39.062,-43.945,-156.250,0
1664567145.402,-107.910,-39.551,-36.621,-112.793,0
1664567145.406,-68.359,-41.016,-41.016,-134.766,0
1664567145.410,-33.691,-40.039,-44.434,-152.344,0
1664567145.414,-62.500,-41.992,-38.574,-129.883,0
1664567145.416,-112.793,-45.410,-40.527,-118.652,0
1664567145.420,-76.172,-39.062,-40.039,-124.023,0
1664567145.424,-12.695,-38.086,-31.250,-132.324,0
1664567145.428,-36.621,-41.504,-36.133,-122.070,0
1664567145.432,-96.680,-40.527,-39.062,-102.051,0
1664567145.436,-96.191,-41.016,-37.109,-98.145,0
1664567145.440,-43.945,-39.062,-39.551,-111.328,0
1664567145.443,-41.992,-35.645,-35.156,-119.141,0
1664567145.447,-96.191,-41.992,-35.645,-118.164,0
1664567145.451,-106.445,-38.086,-35.645,-114.746,0
1664567145.455,-47.852,-33.203,-32.715,-116.211,0
1664567145.459,-29.785,-43.945,-30.273,-124.023,0
1664567145.460,-57.129,-43.457,-27.832,-111.328,0
1664567145.464,-113.770,-38.574,-25.391,-98.633,0
1664567145.468,-80.566,-37.109,-26.855,-116.211,0
1664567145.472,-39.551,-40.527,-30.762,-122.070,0
1664567145.476,-74.707,-43.945,-39.062,-114.746,0
1664567145.480,-125.000,-43.945,-37.598,-105.957,0
1664567145.484,-106.445,-41.504,-37.109,-108.887,0
1664567145.487,-42.969,-38.086,-35.645,-112.793,0
1664567145.491,-55.176,-37.109,-31.738,-121.094,0
1664567145.495,-119.141,-38.086,-33.203,-116.211,0
1664567145.499,-121.582,-40.527,-35.156,-100.098,0
1664567145.503,-59.570,-40.527,-38.086,-107.910,0
1664567145.506,-47.363,-37.598,-39.062,-131.348,0
1664567145.510,-83.008,-39.551,-38.574,-114.258,0
1664567145.514,-120.117,-44.434,-36.621,-95.215,0
1664567145.518,-83.984,-41.016,-33.691,-108.398,0
1664567145.522,-41.504,-37.109,-33.691,-114.258,90
1664567145.526,-69.336,-38.574,-38.086,-104.980,0
1664567145.530,-119.629,-41.992,-34.180,-90.820,0
1664567145.533,-96.680,-50.293,-30.273,-90.332,0
1664567145.537,-54.199,-48.828,-32.227,-101.562,0
1664567145.541,-62.988,-40.039,-27.832,-82.520,0
1664567145.545,-121.094,-38.574,-21.484,-63.477,0
1664567145.549,-125.488,-43.945,-26.367,-83.984,0
1664567145.566,-66.895,-49.805,-32.227,-104.492,0
1664567145.570,-64.941,-47.852,-33.203,-93.262,0
1664567145.574,-114.746,-45.410,-32.715,-84.473,0
1664567145.578,-135.742,-43.945,-37.109,-91.797,0
1664567145.582,-79.590,-44.434,-43.945,-123.535,0
1664567145.586,-64.941,-52.734,-44.434,-137.695,0
1664567145.590,-111.328,-52.734,-41.504,-105.957,0
1664567145.593,-140.625,-46.875,-39.551,-92.773,0
1664567145.597,-86.426,-41.016,-36.133,-106.445,0
1664567145.601,-56.152,-41.016,-29.297,-114.746,0
1664567145.605,-95.215,-49.805,-30.762,-110.840,0
1664567145.609,-134.277,-45.898,-35.156,-99.609,0
1664567145.596,-93.750,-37.598,-32.227,-97.656,0
1664567145.600,-47.852,-39.062,-36.621,-111.328,0
1664567145.604,-68.848,-43.457,-39.551,-98.145,0
1664567145.608,-125.977,-43.945,-35.156,-91.309,0
1664567145.612,-117.676,-38.086,-33.203,-108.887,0
1664567145.616,-48.340,-39.062,-29.785,-109.375,0
1664567145.620,-55.176,-43.945,-33.203,-111.328,0
1664567145.623,-123.535,-42.480,-34.180,-102.539,0
1664567145.627,-128.418,-41.992,-30.273,-95.215,0
1664567145.631,-51.758,-44.434,-24.414,-97.168,0
1664567145.635,-46.387,-45.898,-27.344,-100.098,0
1664567145.639,-104.492,-42.969,-34.668,-102.539,0
1664567145.656,-130.859,-44.922,-28.320,-88.867,0
1664567145.660,-80.566,-50.781,-24.902,-95.703,0
1664567145.664,-43.945,-43.945,-31.250,-114.258,0
1664567145.668,-78.613,-42.480,-31.738,-103.516,0
1664567145.672,-137.695,-47.852,-32.715,-82.520,0
1664567145.676,-103.027,-45.898,-32.227,-80.078,0
1664567145.680,-39.062,-45.410,-34.668,-94.727,0
1664567145.683,-59.082,-45.898,-37.598,-97.656,0
1664567145.687,-113.281,-41.504,-29.297,-87.891,0
1664567145.691,-111.816,-45.410,-28.809,-82.520,0
1664567145.695,-58.594,-50.293,-39.551,-102.539,0
1664567145.699,-69.336,-57.129,-41.504,-137.207,0
1664567145.701,-125.488,-58.105,-44.434,-119.141,0
1664567145.705,-149.902,-51.270,-41.504,-101.562,0
1664567145.709,-99.121,-50.293,-41.016,-124.512,0
1664567145.713,-60.059,-47.852,-38.574,-128.906,0
1664567145.717,-91.309,-43.945,-36.621,-116.211,0
1664567145.721,-152.832,-43.457,-42.480,-101.562,0
1664567145.725,-109.375,-46.875,-42.480,-106.934,0
1664567145.728,-60.547,-53.223,-46.875,-151.367,0
1664567145.732,-88.379,-51.758,-52.246,-153.809,0
1664567145.736,-146.484,-50.781,-40.527,-119.141,0
1664567145.740,-121.094,-46.875,-40.039,-124.023,0
1664567145.744,-48.340,-44.434,-45.410,-127.441,0
1664567145.747,-61.035,-48.340,-41.992,-123.535,0
1664567145.751,-119.629,-46.875,-39.551,-110.352,0
1664567145.755,-113.770,-47.363,-41.504,-89.355,0
1664567145.759,-52.734,-49.805,-42.969,-114.258,0
1664567145.763,-49.316,-52.246,-41.992,-129.883,0
1664567145.767,-84.473,-47.363,-41.016,-102.051,0
1664567145.771,-111.816,-42.480,-46.387,-96.191,0
1664567145.774,-65.430,-50.293,-48.828,-117.188,0
1664567145.778,-11.719,-50.293,-41.992,-120.117,0
1664567145.782,-49.805,-40.039,-39.062,-125.977,0
1664567145.786,-112.793,-33.203,-31.250,-125.488,0
1664567145.790,-75.195,-36.133,-28.809,-120.117,0
1664567145.792,-23.438,-40.527,-32.715,-125.977,0
1664567145.796,-49.316,-41.016,-37.109,-117.188,0
1664567145.800,-105.957,-40.527,-40.039,-96.680,0
1664567145.804,-95.703,-48.828,-38.086,-96.680,0
1664567145.808,-53.223,-53.223,-40.039,-110.840,0
1664567145.812,-54.688,-52.246,-47.852,-111.328,0
1664567145.816,-114.746,-52.246,-51.758,-98.145,0
1664567145.819,-126.465,-51.758,-42.480,-68.848,0
1664567145.823,-64.453,-54.199,-41.504,-76.660,0
1664567145.827,-54.199,-43.945,-44.434,-110.352,0
1664567145.831,-101.074,-41.016,-34.668,-95.215,0
1664567145.835,-141.113,-53.223,-37.598,-81.055,0
1664567145.837,-91.309,-56.641,-48.340,-98.633,0
1664567145.841,-57.129,-55.176,-48.340,-109.375,0
1664567145.845,-94.238,-51.270,-49.316,-93.262,0
1664567145.849,-140.137,-50.293,-50.293,-71.777,0
1664567145.853,-117.676,-54.199,-51.270,-76.660,0
1664567145.857,-67.871,-52.734,-51.270,-99.609,0
1664567145.861,-78.613,-55.664,-42.969,-89.355,0
1664567145.864,-139.160,-57.129,-34.668,-55.176,0
1664567145.868,-146.973,-54.688,-41.504,-76.660,0
1664567145.872,-89.844,-54.688,-42.969,-96.680,0
1664567145.876,-77.148,-49.316,-37.598,-85.938,0
1664567145.880,-122.559,-42.969,-34.668,-66.895,0
1664567145.882,-141.113,-48.340,-34.180,-69.336,0
1664567145.886,-95.703,-48.340,-37.109,-89.844,0
1664567145.890,-76.660,-47.363,-38.574,-93.262,0
1664567145.894,-112.305,-47.363,-37.598,-81.543,0
1664567145.898,-148.438,-46.387,-39.551,-67.383,0
1664567145.902,-104.980,-52.734,-43.945,-82.031,0
1664567145.906,-65.918,-54.688,-44.922,-101.074,0
1664567145.909,-95.703,-53.223,-49.316,-95.703,0
1664567145.913,-151.367,-49.805,-54.199,-82.520,0
1664567145.917,-127.441,-49.316,-54.199,-85.449,0
1664567145.921,-81.055,-54.688,-52.734,-93.750,0
1664567145.925,-96.191,-53.223,-50.293,-90.332,0
1664567145.927,-146.484,-53.711,-48.828,-82.031,0
1664567145.931,-140.625,-53.223,-47.363,-75.684,0
1664567145.935,-77.148,-49.316,-45.410,-94.238,0
1664567145.939,-67.383,-46.387,-43.945,-97.656,0
1664567145.943,-111.328,-44.434,-40.039,-60.547,0
1664567145.947,-137.695,-46.387,-35.645,-61.523,0
1664567145.951,-79.590,-50.781,-37.109,-75.684,0
1664567145.954,-57.129,-52.246,-40.039,-88.867,0
1664567145.958,-91.797,-48.828,-41.016,-95.215,0
1664567145.962,-146.484,-54.688,-37.109,-73.730,0
1664567145.966,-125.488,-59.570,-39.062,-72.754,0
1664567145.970,-70.801,-59.082,-42.480,-89.355,0
1664567145.972,-88.867,-58.105,-42.480,-89.844,0
1664567145.976,-136.719,-56.641,-41.504,-76.660,0
1664567145.980,-118.164,-60.059,-40.527,-83.008,0
1664567145.984,-68.848,-51.758,-41.992,-97.656,0
1664567145.988,-70.801,-47.363,-37.109,-109.863,0
1664567145.992,-113.281,-55.664,-31.250,-111.816,0
1664567145.996,-115.234,-54.688,-34.668,-101.562,0
1664567145.999,-60.059,-49.316,-40.039,-100.098,0
1664567146.003,-49.805,-43.945,-39.551,-113.281,0
1664567146.007,-98.145,-43.457,-36.133,-89.844,0
1664567146.011,-140.137,-47.363,-37.598,-81.543,0
1664567146.015,-93.750,-45.410,-41.016,-101.562,0
1664567146.062,-46.387,-41.016,-41.016,-94.727,0
1664567146.066,-83.496,-41.992,-39.551,-85.938,0
1664567146.070,-147.949,-43.945,-39.062,-82.520,0
1664567146.074,-106.934,-48.340,-44.434,-94.238,0
1664567146.078,-54.688,-54.199,-42.480,-105.957,0
1664567146.082,-79.102,-57.129,-33.691,-90.332,0
1664567146.086,-133.789,-50.781,-38.086,-82.031,0
1664567146.089,-124.023,-42.480,-39.551,-88.379,0
1664567146.093,-63.965,-44.434,-40.527,-90.332,0
1664567146.097,-63.477,-44.434,-42.969,-75.195,0
1664567146.101,-118.652,-42.480,-45.898,-83.496,0
1664567146.105,-130.859,-43.457,-41.992,-85.938,0
1664567146.077,-69.336,-47.363,-42.480,-85.938,0
1664567146.081,-58.594,-51.758,-42.480,-92.285,0
1664567146.085,-107.422,-42.480,-35.645,-70.312,0
1664567146.089,-137.695,-44.434,-39.551,-67.871,0
1664567146.093,-80.078,-48.340,-35.645,-87.891,0
1664567146.097,-49.805,-45.898,-38.574,-91.797,0
1664567146.101,-81.055,-45.898,-52.246,-85.449,0
1664567146.104,-133.789,-46.387,-50.781,-78.613,0
1664567146.108,-104.980,-48.340,-41.504,-77.637,0
1664567146.112,-45.410,-42.969,-41.992,-92.285,0
1664567146.116,-67.383,-39.062,-39.551,-86.914,0
1664567146.120,-116.699,-39.062,-34.668,-70.801,0
1664567146.122,-101.562,-36.133,-27.344,-62.988,0
1664567146.126,-53.711,-35.156,-23.926,-69.824,0
1664567146.130,-64.941,-38.574,-31.250,-77.637,0
1664567146.134,-116.211,-41.016,-33.203,-59.082,0
1664567146.138,-123.047,-41.504,-29.297,-42.480,0
1664567146.142,-70.801,-44.434,-34.180,-61.035,0
1664567146.146,-61.523,-42.480,-37.598,-84.961,0
1664567146.149,-95.215,-42.969,-35.156,-89.355,0
1664567146.153,-126.465,-45.410,-23.926,-58.105,0
1664567146.157,-88.867,-44.922,-30.273,-72.266,0
1664567146.161,-51.758,-44.434,-44.434,-96.191,0
1664567146.165,-76.660,-38.574,-43.945,-82.520,0
1664567146.167,-133.301,-41.016,-39.062,-65.918,0
1664567146.171,-117.676,-45.410,-40.039,-65.918,0
1664567146.175,-57.129,-44.922,-44.922,-83.984,0
1664567146.179,-70.312,-51.758,-49.316,-83.496,0
1664567146.183,-132.812,-54.688,-50.293,-68.848,0
1664567146.187,-135.254,-49.805,-45.410,-64.941,0
1664567146.191,-67.871,-49.805,-44.922,-79.590,0
1664567146.194,-61.523,-48.828,-41.992,-82.031,0
1664567146.198,-115.723,-45.898,-42.480,-66.895,0
1664567146.202,-145.020,-41.992,-46.875,-74.707,0
1664567146.206,-85.938,-43.945,-42.969,-96.680,0
1664567146.210,-54.199,-45.898,-39.551,-99.121,0
1664567146.227,-95.703,-45.898,-38.574,-74.219,0
1664567146.231,-139.160,-47.852,-37.598,-62.500,0
1664567146.235,-95.215,-48.340,-40.527,-79.590,0
1664567146.239,-56.152,-44.434,-41.992,-103.516,0
1664567146.243,-85.449,-39.551,-44.434,-96.680,0
1664567146.247,-145.020,-42.480,-40.039,-73.730,0
1664567146.251,-121.582,-44.922,-39.062,-75.684,0
1664567146.254,-47.363,-44.922,-33.203,-74.219,0
1664567146.258,-60.547,-45.410,-38.086,-91.309,0
1664567146.262,-121.094,-41.992,-47.852,-97.656,0
1664567146.266,-128.906,-41.016,-43.945,-83.984,0
1664567146.270,-75.195,-43.945,-42.480,-95.703,0
1664567146.257,-61.035,-45.410,-49.805,-108.398,0
1664567146.261,-103.516,-46.875,-50.293,-104.980,0
1664567146.265,-129.883,-42.969,-45.898,-83.984,0
1664567146.269,-69.336,-41.504,-47.363,-81.055,0
1664567146.273,-26.367,-41.992,-41.504,-85.449,0
1664567146.277,-57.129,-46.387,-38.086,-75.684,0
1664567146.281,-122.070,-46.387,-41.992,-57.129,0
1664567146.284,-92.285,-41.992,-42.480,-61.523,0
1664567146.288,-42.480,-46.387,-43.457,-81.055,0
1664567146.292,-59.570,-47.852,-48.828,-78.613,0
1664567146.296,-102.539,-40.527,-45.410,-50.781,0
1664567146.300,-97.656,-40.039,-42.480,-56.152,0
1664567146.302,-48.828,-46.387,-46.875,-87.891,0
1664567146.306,-37.598,-45.410,-42.969,-88.379,0
1664567146.310,-95.215,-41.992,-42.969,-68.848,0
1664567146.314,-123.535,-43.945,-46.387,-78.125,0
1664567146.318,-60.547,-42.969,-45.410,-106.445,0
1664567146.322,-36.133,-36.621,-43.945,-101.074,0
1664567146.326,-78.613,-43.945,-40.039,-77.637,0
1664567146.329,-124.023,-46.387,-40.527,-82.520,0
1664567146.333,-64.941,-37.109,-39.551,-111.328,0
1664567146.337,-23.438,-36.621,-37.598,-107.422,0
1664567146.341,-71.777,-41.992,-40.527,-88.379,0
1664567146.345,-128.906,-44.434,-43.945,-87.891,0
1664567146.347,-99.609,-40.039,-43.457,-103.027,0
1664567146.351,-46.387,-49.805,-42.969,-118.652,0
1664567146.355,-54.199,-52.246,-45.410,-108.887,0
1664567146.359,-109.375,-50.293,-43.457,-91.797,0
1664567146.363,-111.816,-51.758,-37.598,-95.215,0
1664567146.367,-40.527,-45.898,-27.832,-93.262,0
1664567146.371,-39.551,-45.410,-27.344,-101.074,0
1664567146.374,-98.145,-45.898,-36.621,-119.141,0
1664567146.378,-113.770,-43.945,-41.992,-106.445,0
1664567146.382,-45.410,-48.828,-44.434,-110.352,0
1664567146.386,-30.273,-55.176,-43.457,-118.652,0
1664567146.390,-87.402,-50.781,-42.969,-112.305,0
1664567146.407,-121.582,-43.457,-42.969,-95.703,0
1664567146.411,-68.848,-47.852,-39.551,-90.820,0
1664567146.415,-28.320,-41.992,-40.039,-100.098,0
1664567146.419,-60.059,-36.621,-45.898,-100.098,0
1664567146.423,-117.676,-45.410,-42.969,-92.773,0
1664567146.427,-89.844,-46.387,-36.133,-90.820,0
1664567146.431,-31.738,-46.387,-43.457,-109.375,0
1664567146.434,-50.293,-46.387,-43.945,-118.164,0
1664567146.438,-109.375,-49.316,-39.551,-104.492,0
1664567146.442,-106.934,-52.246,-33.691,-98.145,0
1664567146.446,-46.875,-47.363,-37.598,-109.863,0
1664567146.450,-38.574,-47.852,-35.645,-118.164,0
1664567146.466,-93.750,-51.270,-35.645,-109.375,0
1664567146.470,-130.859,-51.758,-40.039,-116.699,0
1664567146.474,-70.801,-52.246,-37.598,-147.461,0
1664567146.478,-38.574,-44.922,-36.621,-146.484,0
1664567146.482,-77.148,-46.875,-41.016,-130.859,0
1664567146.486,-122.559,-52.246,-41.504,-122.070,0
1664567146.490,-81.055,-49.316,-39.551,-116.211,0
1664567146.493,-30.762,-44.434,-36.133,-113.770,0
1664567146.497,-49.316,-38.086,-28.809,-103.516,0
1664567146.501,-98.145,-44.434,-26.855,-96.191,0
1664567146.505,-91.309,-42.480,-32.715,-99.121,0
1664567146.509,-24.902,-36.133,-32.715,-110.352,0
1664567146.497,-21.484,-37.109,-25.391,-111.816,0
1664567146.501,-93.750,-37.109,-22.461,-95.215,0
1664567146.505,-102.051,-37.109,-25.879,-98.633,0
1664567146.509,-43.457,-46.387,-41.016,-123.535,0
1664567146.513,-38.574,-46.875,-41.992,-126.953,0
1664567146.517,-87.402,-41.504,-31.738,-98.145,0
1664567146.521,-126.465,-52.734,-40.039,-105.469,0
1664567146.524,-62.012,-56.152,-47.852,-117.188,71
1664567146.528,-18.066,-44.922,-36.621,-93.750,0
1664567146.532,-68.848,-46.387,-38.086,-97.168,0
1664567146.536,-109.863,-46.387,-41.504,-97.168,0
1664567146.540,-62.500,-41.992,-39.062,-102.539,0
1664567146.542,-28.320,-42.480,-39.551,-115.234,0
1664567146.546,-55.176,-42.969,-37.109,-105.957,0
1664567146.550,-99.121,-44.922,-33.691,-83.008,0
1664567146.554,-95.215,-45.898,-37.109,-86.914,0
1664567146.558,-42.969,-50.781,-41.504,-105.469,0
1664567146.562,-36.621,-54.688,-36.133,-102.539,0
1664567146.566,-94.727,-50.293,-36.133,-87.891,0
1664567146.569,-107.910,-47.852,-37.598,-74.219,0
1664567146.573,-40.039,-49.805,-33.203,-76.172,0
1664567146.577,-27.344,-43.945,-38.574,-109.863,0
1664567146.581,-66.406,-41.504,-36.621,-103.516,0
1664567146.585,-97.656,-45.898,-34.668,-78.125,0
1664567146.602,-58.594,-41.016,-37.109,-97.168,0
1664567146.606,-28.320,-39.551,-34.668,-121.094,0
1664567146.610,-63.477,-43.945,-35.156,-102.539,0
1664567146.614,-119.629,-43.945,-41.504,-85.938,0
1664567146.618,-98.145,-41.504,-46.387,-102.539,0
1664567146.622,-48.828,-44.922,-45.898,-123.535,0
1664567146.626,-70.801,-41.016,-44.434,-121.094,0
1664567146.629,-117.188,-40.039,-43.457,-100.586,0
1664567146.633,-110.840,-46.387,-45.410,-107.422,0
1664567146.637,-65.430,-44.434,-50.293,-135.254,0
1664567146.641,-56.641,-43.945,-45.898,-130.371,0
1664567146.645,-91.797,-40.527,-35.156,-102.051,0
1664567146.647,-124.023,-41.016,-39.062,-112.793,0
1664567146.651,-78.125,-47.363,-44.434,-131.836,0
1664567146.655,-46.875,-48.828,-41.504,-127.930,0
1664567146.659,-80.566,-45.898,-31.738,-114.746,0
1664567146.663,-125.977,-42.969,-34.668,-124.512,0
1664567146.667,-74.707,-46.387,-35.156,-133.301,0
1664567146.671,-21.484,-45.898,-31.250,-131.836,0
1664567146.674,-62.988,-45.898,-38.086,-132.324,0
1664567146.678,-119.629,-45.410,-41.992,-115.234,0
1664567146.682,-77.148,-42.969,-42.480,-107.910,0
1664567146.686,-14.648,-46.387,-40.527,-110.352,0
1664567146.690,-32.227,-46.387,-36.133,-101.074,0
1664567146.692,-97.656,-41.504,-40.527,-99.121,0
1664567146.696,-109.863,-42.969,-41.016,-94.238,0
1664567146.700,-61.523,-43.945,-41.016,-114.746,0
1664567146.704,-60.059,-41.016,-40.527,-125.000,0
1664567146.708,-103.027,-42.480,-34.668,-106.445,0
1664567146.712,-126.465,-47.852,-33.691,-100.586,0
1664567146.716,-75.684,-48.828,-43.945,-121.094,0
1664567146.719,-47.852,-40.039,-48.340,-124.023,0
1664567146.723,-80.078,-34.180,-46.875,-109.375,0
1664567146.727,-130.859,-39.551,-44.922,-113.281,0
1664567146.731,-93.262,-42.969,-43.457,-95.215,0
1664567146.735,-58.594,-41.992,-53.223,-115.234,0
1664567146.737,-93.750,-41.504,-54.688,-135.742,0
1664567146.741,-138.184,-43.457,-52.734,-110.840,0
1664567146.745,-121.582,-47.852,-57.129,-106.934,0
1664567146.749,-61.035,-46.387,-54.688,-125.977,0
1664567146.753,-59.082,-42.969,-51.270,-125.000,0
1664567146.757,-117.188,-47.363,-50.781,-104.492,0
1664567146.761,-130.371,-57.129,-53.711,-106.934,0
1664567146.764,-70.801,-57.129,-50.293,-124.023,0
1664567146.768,-61.523,-53.711,-45.898,-124.512,0
1664567146.772,-108.398,-62.012,-41.992,-102.051,0
1664567146.776,-138.184,-59.570,-39.062,-92.285,0
1664567146.780,-90.820,-50.781,-44.434,-111.816,0
1664567146.782,-49.805,-58.105,-47.852,-115.234,0
1664567146.786,-70.312,-59.082,-44.434,-96.191,0
1664567146.790,-119.629,-46.387,-36.621,-84.961,0
1664567146.794,-95.215,-41.992,-41.016,-102.051,0
1664567146.798,-41.016,-41.016,-47.363,-100.586,0
1664567146.802,-58.594,-50.293,-41.016,-99.121,0
1664567146.806,-127.930,-58.594,-40.039,-107.910,0
1664567146.809,-117.676,-57.129,-48.340,-106.934,0
1664567146.813,-55.664,-48.340,-44.434,-110.840,0
1664567146.817,-69.824,-40.039,-37.598,-100.098,0
1664567146.821,-123.047,-45.898,-46.875,-98.633,0
1664567146.825,-130.859,-45.898,-49.805,-100.098,0
1664567146.827,-62.012,-42.480,-45.898,-110.352,0
1664567146.831,-48.340,-39.551,-39.062,-118.164,0
1664567146.835,-91.797,-37.109,-37.109,-105.469,0
1664567146.839,-121.094,-39.062,-35.156,-93.262,0
1664567146.843,-79.590,-37.109,-32.715,-102.539,0
1664567146.847,-37.109,-36.133,-35.645,-108.887,0
1664567146.851,-67.383,-36.133,-40.527,-99.121,0
1664567146.854,-123.047,-42.969,-48.828,-94.238,0
1664567146.858,-86.426,-42.969,-48.828,-100.586,0
1664567146.862,-34.180,-35.156,-45.410,-110.840,0
1664567146.866,-62.988,-47.363,-52.734,-117.676,0
1664567146.870,-126.465,-54.199,-52.734,-105.469,0
1664567146.873,-115.234,-49.805,-42.480,-92.773,0
1664567146.877,-45.410,-58.105,-40.527,-91.309,0
1664567146.881,-39.551,-51.758,-44.434,-86.426,0
1664567146.885,-102.051,-28.320,-43.945,-85.938,0
1664567146.889,-134.766,-31.738,-47.852,-99.121,0
1664567146.893,-77.148,-41.016,-52.734,-118.652,0
1664567146.897,-49.805,-32.715,-55.176,-125.488,0
1664567146.900,-95.215,-28.809,-55.664,-110.352,0
1664567146.904,-139.160,-30.273,-48.340,-88.867,0
1664567146.908,-100.098,-28.809,-53.223,-117.676,0
1664567146.912,-49.316,-24.902,-50.293,-137.207,0
1664567146.916,-62.500,-30.273,-42.969,-121.094,0
1664567146.918,-120.605,-31.250,-48.828,-97.168,0
1664567146.922,-96.191,-28.320,-47.363,-94.727,0
1664567146.926,-38.086,-31.250,-45.898,-120.117,0
1664567146.930,-46.875,-33.691,-41.504,-121.582,0
1664567146.934,-104.492,-33.691,-41.992,-104.492,0
1664567146.938,-108.887,-35.156,-44.434,-97.656,0
1664567146.942,-43.945,-37.109,-44.434,-112.305,0
1664567146.945,-37.598,-36.133,-41.016,-110.352,0
1664567146.949,-101.562,-39.551,-38.086,-95.215,0
1664567146.953,-143.066,-41.504,-43.457,-96.191,0
1664567146.957,-72.754,-42.969,-44.922,-99.121,0
1664567146.961,-37.598,-36.133,-45.898,-105.469,0
1664567146.962,-76.660,-34.668,-50.781,-101.562,0
1664567146.966,-110.352,-38.574,-48.340,-82.031,0
1664567146.970,-83.496,-39.551,-41.016,-84.961,0
1664567146.974,-43.457,-39.062,-34.180,-98.145,0
1664567146.978,-63.965,-39.551,-34.180,-89.844,0
1664567146.982,-124.023,-44.922,-35.645,-71.777,0
1664567146.986,-105.957,-47.852,-39.062,-64.453,0
1664567146.989,-41.016,-50.293,-42.480,-69.824,0
1664567146.993,-51.270,-44.922,-46.387,-92.285,0
1664567146.997,-100.098,-36.621,-44.922,-76.172,0
1664567147.001,-103.516,-41.016,-45.410,-56.152,0
1664567147.005,-58.105,-47.852,-46.387,-78.613,0
1664567147.007,-52.734,-39.551,-45.898,-96.191,0
1664567147.011,-95.215,-39.062,-48.340,-87.891,0
1664567147.015,-134.277,-43.945,-40.527,-78.125,0
1664567147.019,-83.496,-39.062,-43.457,-92.285,0
1664567147.023,-34.668,-37.109,-48.340,-101.074,0
1664567147.027,-65.430,-36.621,-43.945,-100.586,0
1664567147.031,-118.164,-39.551,-44.922,-86.914,0
1664567147.034,-88.379,-41.016,-41.992,-72.266,0
1664567147.038,-48.340,-34.180,-45.410,-97.656,0
1664567147.042,-63.965,-40.527,-47.852,-101.074,0
1664567147.046,-120.117,-45.410,-47.852,-70.801,0
1664567147.050,-118.652,-41.504,-53.711,-78.613,0
1664567147.052,-62.500,-41.016,-55.664,-116.699,0
1664567147.056,-58.105,-46.875,-48.340,-111.816,0
1664567147.060,-115.234,-45.410,-48.828,-90.332,0
1664567147.064,-147.461,-41.504,-57.129,-90.820,0
1664567147.068,-74.219,-50.293,-52.734,-101.074,0
1664567147.072,-44.922,-52.734,-47.852,-99.609,0
1664567147.076,-101.074,-50.293,-44.922,-82.031,0
1664567147.079,-146.973,-52.246,-41.504,-74.707,0
1664567147.083,-93.262,-52.246,-41.504,-85.938,0
1664567147.087,-49.316,-49.805,-35.645,-90.820,0
1664567147.091,-83.984,-53.223,-39.062,-82.520,0
1664567147.095,-133.789,-54.688,-47.363,-79.102,0
1664567147.097,-114.258,-51.270,-47.852,-83.496,0
1664567147.101,-58.594,-47.363,-48.340,-88.379,0
1664567147.105,-67.383,-48.340,-42.480,-92.285,0
1664567147.109,-129.883,-47.852,-43.945,-80.078,0
1664567147.113,-126.465,-44.922,-51.758,-84.473,0
1664567147.117,-53.711,-44.922,-49.805,-102.051,0
1664567147.121,-54.199,-47.363,-48.828,-107.422,0
1664567147.124,-118.652,-48.828,-47.363,-102.051,0
1664567147.128,-138.672,-48.828,-41.504,-88.867,0
1664567147.132,-72.754,-51.270,-39.551,-86.426,0
1664567147.136,-43.945,-50.293,-38.086,-105.957,0
1664567147.140,-91.797,-43.457,-37.109,-105.957,0
1664567147.158,-126.953,-36.133,-37.109,-90.332,0
1664567147.162,-76.660,-37.109,-36.133,-96.680,0
1664567147.166,-38.574,-37.109,-38.574,-107.910,0
1664567147.170,-73.242,-41.992,-39.551,-108.887,0
1664567147.174,-137.207,-47.852,-33.203,-85.449,0
1664567147.178,-105.957,-46.875,-30.273,-66.406,0
1664567147.182,-50.293,-46.875,-35.645,-101.562,0
1664567147.185,-77.148,-44.434,-42.480,-120.605,0
1664567147.189,-120.117,-36.621,-41.992,-92.773,0
1664567147.193,-115.234,-39.062,-33.203,-78.613,0
1664567147.197,-64.453,-40.527,-41.016,-103.516,0
1664567147.201,-56.641,-41.992,-43.945,-109.375,0
1664567147.204,-90.332,-44.922,-34.668,-88.867,0
1664567147.208,-117.188,-50.781,-36.133,-96.680,0
1664567147.212,-74.707,-51.270,-41.504,-100.586,0
1664567147.216,-40.527,-48.340,-41.504,-101.562,0
1664567147.220,-69.336,-47.852,-38.574,-99.121,0
1664567147.224,-120.605,-46.875,-38.086,-83.496,0
1664567147.228,-80.566,-47.363,-41.504,-93.262,0
1664567147.231,-32.227,-44.434,-41.016,-99.609,0
1664567147.235,-59.570,-41.016,-36.621,-74.707,0
1664567147.239,-123.047,-44.434,-40.527,-80.566,0
1664567147.243,-107.422,-41.992,-44.434,-99.121,0
1664567147.247,-30.762,-33.691,-43.945,-92.773,0
1664567147.248,-31.250,-35.645,-34.180,-82.031,0
1664567147.252,-93.750,-37.598,-33.203,-73.242,0
1664567147.256,-110.840,-40.527,-35.645,-75.195,0
1664567147.260,-44.922,-37.598,-28.320,-86.426,0
1664567147.264,-20.020,-37.598,-26.367,-81.543,0
1664567147.268,-78.613,-44.434,-26.367,-68.848,0
1664567147.272,-130.371,-48.340,-33.203,-78.125,0
1664567147.275,-65.918,-46.875,-34.668,-88.379,0
1664567147.279,-16.113,-45.410,-25.879,-77.148,0
1664567147.283,-57.129,-42.969,-32.227,-85.938,0
1664567147.287,-117.676,-37.598,-40.527,-89.844,0
1664567147.291,-80.078,-34.668,-36.133,-83.496,0
1664567147.292,-26.367,-34.668,-33.691,-97.168,0
1664567147.296,-51.758,-35.156,-34.180,-90.332,0
1664567147.300,-111.328,-34.180,-37.598,-72.266,0
1664567147.304,-95.703,-36.621,-39.062,-92.285,0
1664567147.308,-24.902,-34.668,-41.504,-104.004,0
1664567147.312,-21.484,-30.762,-39.062,-85.938,0
1664567147.316,-81.055,-36.621,-27.344,-77.148,0
1664567147.319,-87.402,-39.551,-16.113,-70.801,0
1664567147.323,-15.625,-38.574,-12.695,-60.547,0
1664567147.327,-12.695,-39.551,-22.949,-81.543,0
1664567147.331,-51.758,-36.621,-24.414,-73.242,0
1664567147.335,-100.586,-44.434,-19.531,-67.871,0
1664567147.337,-122.070,-52.734,-20.020,-125.488,0
1664567147.341,-83.008,-48.340,-30.273,-156.250,0
1664567147.345,-81.543,-49.316,-40.527,-133.301,0
1664567147.349,-122.070,-57.129,-35.156,-103.027,0
1664567147.353,-84.473,-58.594,-29.297,-83.984,0
1664567147.357,-30.762,-57.617,-31.738,-97.168,0
1664567147.361,-50.293,-58.594,-33.691,-102.051,0
1664567147.364,-96.680,-59.082,-34.668,-71.777,0
1664567147.368,-96.680,-51.758,-48.340,-71.777,0
1664567147.372,-40.039,-46.387,-56.152,-85.449,0
1664567147.376,-19.531,-42.969,-45.898,-78.613,0
1664567147.380,-72.266,-39.551,-34.180,-68.848,0
1664567147.383,-96.680,-37.598,-33.203,-61.523,0
1664567147.387,-28.320,-41.992,-40.039,-64.941,0
1664567147.391,-6.836,-43.945,-36.133,-63.477,0
1664567147.395,-53.223,-40.039,-31.738,-53.711,0
1664567147.399,-97.656,-40.039,-30.762,-56.641,0
1664567147.403,-50.781,-40.039,-24.414,-62.012,0
1664567147.407,-2.441,-41.504,-25.391,-64.941,0
1664567147.410,-21.484,-48.340,-33.203,-72.266,0
1664567147.414,-101.074,-45.898,-43.945,-80.566,0
1664567147.418,-94.727,-41.992,-44.922,-88.379,0
1664567147.422,-27.344,-39.551,-39.062,-87.402,0
1664567147.426,-39.062,-32.715,-37.109,-74.707,0
1664567148.735,-92.773,-32.715,-35.645,-56.152,0
1664567148.739,-90.820,-34.668,-30.273,-59.082,0
1664567148.743,-41.992,-41.016,-43.945,-102.539,0
1664567148.747,-41.992,-47.852,-53.223,-109.863,0
1664567148.751,-89.355,-43.945,-44.922,-93.750,0
1664567148.755,-123.047,-40.039,-34.668,-85.938,0
1664567148.759,-63.477,-33.203,-28.320,-83.008,0
1664567148.762,-51.758,-34.668,-40.039,-104.492,0
1664567148.766,-103.516,-42.969,-47.363,-113.281,0
1664567148.770,-153.320,-32.715,-42.480,-99.121,0
1664567148.774,-120.605,-27.832,-38.574,-101.074,0
1664567148.778,-73.730,-31.738,-37.109,-125.977,0
1664567148.736,-101.074,-29.785,-36.621,-127.441,0
1664567148.740,-164.551,-29.297,-38.574,-115.234,0
1664567148.744,-170.898,-27.832,-41.992,-134.766,0
1664567148.748,-110.352,-14.648,-43.945,-151.855,0
1664567148.752,-111.328,-3.906,-41.504,-158.203,0
1664567148.756,-174.316,-5.859,-40.527,-137.207,0
1664567148.760,-186.523,-18.555,-42.969,-121.582,0
1664567148.763,-117.188,-16.602,-49.805,-152.344,0
1664567148.767,-102.539,-7.324,-45.898,-152.344,0
1664567148.771,-150.391,-18.066,-43.457,-126.465,0
1664567148.775,-184.570,-29.785,-50.293,-113.770,0
1664567148.779,-125.000,-30.762,-51.270,-119.141,0
1664567148.894,-68.848,-29.785,-54.688,-121.582,0
1664567148.898,-90.332,-30.762,-54.199,-99.121,0
1664567148.902,-132.812,-38.086,-53.223,-89.844,0
1664567148.906,-85.449,-39.062,-52.246,-93.750,0
1664567148.910,-31.738,-39.551,-50.781,-89.355,0
1664567148.914,-57.617,-45.410,-44.922,-74.219,0
1664567148.918,-111.816,-46.387,-44.434,-58.105,0
1664567148.921,-102.539,-41.016,-46.387,-55.176,0
1664567148.925,-30.762,-41.504,-37.109,-41.992,0
1664567148.929,-27.832,-53.223,-31.738,-34.180,0
1664567148.933,-109.863,-55.176,-42.480,-47.363,0
1664567148.937,-134.766,-53.711,-50.781,-42.969,0
1664567148.895,-61.523,-59.570,-46.875,-51.270,0
1664567148.899,-43.945,-59.570,-42.969,-65.918,0
1664567148.903,-81.055,-60.059,-46.387,-56.152,0
1664567148.907,-107.422,-60.059,-46.875,-42.969,0
1664567148.911,-71.289,-60.547,-40.527,-41.504,0
1664567148.915,-28.809,-63.477,-37.598,-42.969,0
1664567148.919,-45.898,-59.570,-40.527,-44.922,0
1664567148.922,-104.980,-51.270,-40.527,-33.203,0
1664567148.926,-70.312,-45.410,-37.109,-23.438,0
1664567148.930,-5.859,-44.922,-38.086,-42.480,0
1664567148.934,-23.438,-43.945,-39.062,-41.992,0
1664567148.938,-78.613,-44.434,-33.691,-33.203,0
1664567148.896,-77.148,-51.758,-29.785,-30.762,0
1664567148.900,-15.625,-57.129,-34.180,-32.715,0
1664567148.904,-7.812,-49.316,-36.133,-54.199,0
1664567148.908,-62.012,-44.922,-34.180,-39.062,0
1664567148.912,-81.055,-45.410,-35.645,-31.250,0
1664567148.916,-26.367,-41.992,-38.574,-54.688,0
1664567148.920,-28.320,-48.340,-42.480,-65.918,0
1664567148.923,-62.500,-50.781,-44.922,-59.570,0
1664567148.927,-100.586,-49.316,-39.551,-39.551,0
1664567148.931,-68.848,-50.293,-42.480,-55.664,0
1664567148.935,-40.039,-50.293,-53.223,-79.590,0
1664567148.939,-81.543,-49.805,-49.316,-85.449,0
1664567148.897,-132.812,-46.875,-43.457,-79.590,0
1664567148.901,-105.469,-50.293,-42.480,-78.125,0
1664567148.905,-41.992,-49.316,-41.504,-86.426,0
1664567148.909,-47.852,-49.805,-43.457,-83.984,0
1664567148.913,-97.656,-53.711,-48.828,-73.730,0
1664567148.917,-84.473,-47.363,-48.828,-81.055,0
1664567148.921,-25.391,-47.363,-49.316,-102.539,0
1664567148.924,-29.297,-45.898,-50.293,-91.309,0
1664567148.928,-77.148,-47.852,-45.410,-65.430,0
1664567148.932,-113.770,-53.223,-45.410,-65.918,0
1664567148.936,-55.664,-53.711,-42.480,-80.078,0
1664567148.940,-18.555,-53.223,-41.992,-88.379,0
1664567148.898,-53.223,-49.316,-44.922,-82.031,0
1664567148.902,-112.305,-53.711,-46.875,-69.336,0
1664567148.906,-85.449,-53.223,-51.270,-79.590,0
1664567148.910,-18.066,-45.898,-45.898,-84.961,0
1664567148.914,-55.176,-56.152,-40.039,-75.195,0
1664567148.918,-123.047,-55.664,-41.504,-73.242,0
1664567148.922,-99.121,-44.922,-40.527,-63.965,0
1664567148.925,-33.691,-47.363,-34.668,-66.406,0
1664567148.929,-36.133,-41.992,-40.527,-81.055,0
1664567148.933,-90.332,-36.133,-41.504,-64.453,0
1664567148.937,-96.191,-41.504,-33.691,-54.688,0
1664567148.941,-37.598,-45.410,-39.062,-70.312,0
1664567148.899,-25.391,-46.875,-48.340,-72.266,0
1664567148.903,-62.988,-45.410,-49.316,-41.992,0
1664567148.907,-103.516,-45.898,-37.109,-31.250,0
1664567148.911,-62.988,-53.711,-30.762,-65.430,0
1664567148.915,-31.250,-59.570,-29.297,-86.426,0
1664567148.919,-61.523,-56.152,-26.855,-77.637,0
1664567148.923,-120.605,-57.129,-26.855,-55.664,0
1664567148.926,-103.027,-70.312,-19.531,-60.059,0
1664567148.930,-61.523,-70.312,-16.602,-84.473,0
1664567148.934,-73.242,-69.824,-13.672,-86.426,0
1664567148.938,-119.629,-67.383,-13.672,-74.707,0
1664567148.942,-123.047,-60.547,-16.602,-64.453,0
1664567148.899,-62.012,-53.223,-17.578,-80.078,0
1664567148.903,-58.594,-53.711,-15.625,-80.566,0
1664567148.907,-114.258,-57.129,-15.137,-59.570,0
1664567148.911,-129.883,-54.199,-27.344,-69.336,0
1664567148.915,-52.246,-59.570,-35.156,-90.820,0
1664567148.919,-17.090,-63.965,-32.227,-76.172,0
1664567148.923,-60.059,-56.641,-31.250,-59.082,0
1664567148.926,-113.281,-55.664,-34.668,-78.125,0
1664567148.930,-75.195,-51.758,-35.645,-84.961,0
1664567148.934,-33.203,-42.480,-35.645,-75.684,0
1664567148.938,-57.129,-47.363,-36.621,-70.312,0
1664567148.942,-119.141,-48.828,-43.945,-80.566,0
1664567148.900,-100.098,-49.805,-44.434,-86.914,0
1664567148.904,-27.344,-50.293,-40.039,-75.684,0
1664567148.908,-28.809,-48.340,-35.645,-75.195,0
1664567148.912,-93.262,-49.316,-41.016,-81.543,0
1664567148.916,-91.797,-46.875,-40.527,-71.777,0
1664567148.920,-25.391,-48.340,-22.461,-70.312,0
1664567148.924,-19.531,-49.316,-19.531,-72.266,0
1664567148.927,-61.523,-46.875,-27.344,-57.129,0
1664567148.931,-86.426,-44.434,-28.320,-47.852,0
1664567148.935,-20.508,-40.039,-27.832,-54.199,0
1664567148.939,20.508,-41.992,-23.438,-61.035,0
1664567148.943,-48.828,-44.434,-25.879,-61.523,0
1664567148.901,-104.980,-47.363,-27.832,-57.129,0
1664567148.905,-44.922,-46.387,-23.438,-52.246,0
1664567148.909,-6.836,-38.086,-23.926,-58.105,0
1664567148.913,-28.809,-37.109,-27.344,-71.777,0
1664567148.917,-77.148,-39.062,-29.297,-61.523,0
1664567148.921,-52.734,-37.109,-21.484,-47.363,0
1664567148.925,1.953,-38.086,-25.879,-63.965,0
1664567148.928,-20.996,-44.922,-33.691,-79.590,0
1664567148.932,-71.777,-43.945,-24.902,-68.848,0
1664567148.936,-85.449,-46.875,-26.367,-62.500,0
1664567148.940,-34.668,-49.316,-38.574,-80.566,0
1664567148.944,-26.855,-41.992,-38.574,-93.750,0
1664567148.902,-83.008,-45.410,-34.180,-83.984,0
1664567148.906,-115.234,-47.363,-34.668,-75.684,0
1664567148.910,-60.547,-44.922,-38.574,-92.773,0
1664567148.914,-39.062,-48.828,-39.062,-102.051,0
1664567148.918,-67.871,-48.340,-41.016,-92.773,0
1664567148.922,-110.840,-48.828,-44.434,-87.891,0
1664567148.926,-95.703,-53.223,-49.316,-100.586,0
1664567148.929,-51.758,-53.223,-56.641,-115.234,0
1664567148.933,-39.062,-40.039,-47.852,-105.469,0
1664567148.937,-96.191,-39.062,-40.039,-92.285,0
1664567148.941,-100.586,-41.992,-41.016,-97.168,0
1664567148.945,-28.809,-36.133,-41.016,-99.121,0
1664567148.903,-32.227,-41.016,-42.969,-119.629,0
1664567148.907,-91.309,-48.828,-48.340,-116.699,0
1664567148.911,-107.910,-39.551,-51.758,-99.121,0
1664567148.915,-42.480,-40.527,-48.340,-94.727,0
1664567148.919,-27.832,-46.875,-45.898,-102.051,0
1664567148.923,-72.754,-50.781,-45.410,-106.934,0
1664567148.927,-103.027,-53.711,-48.340,-98.145,0
1664567148.930,-45.898,-41.016,-44.434,-92.773,0
1664567148.934,-17.090,-35.645,-38.086,-89.844,0
1664567148.938,-58.105,-42.969,-46.387,-110.352,0
1664567148.942,-104.980,-42.480,-49.805,-114.258,0
1664567148.946,-79.102,-41.992,-46.387,-103.516,0
1664567148.904,-23.438,-44.922,-41.504,-123.047,0
1664567148.908,-37.109,-41.016,-33.203,-130.371,0
1664567148.912,-87.891,-32.715,-24.902,-110.352,0
1664567148.916,-82.520,-33.203,-25.879,-108.887,0
1664567148.920,-24.902,-39.551,-31.738,-115.234,0
1664567148.924,-17.578,-39.551,-27.344,-127.930,0
1664567148.928,-70.312,-35.645,-28.809,-125.977,0
1664567148.931,-84.961,-36.621,-35.645,-103.516,0
1664567148.935,-25.879,-36.621,-39.551,-110.840,0
1664567148.939,0.977,-33.203,-44.434,-127.930,0
1664567148.943,-36.621,-32.715,-43.457,-118.652,0
1664567148.947,-98.633,-28.809,-29.297,-100.098,0
1664567148.904,-53.223,-24.902,-21.973,-109.863,0
1664567148.908,-1.953,-25.879,-26.367,-126.465,0
1664567148.912,-24.414,-30.273,-31.738,-124.023,0
1664567148.916,-84.473,-36.621,-35.645,-119.141,0
1664567148.920,-73.730,-38.086,-40.039,-126.465,0
1664567148.924,-22.949,-40.527,-43.457,-140.137,0
1664567148.928,-28.320,-41.016,-46.875,-148.926,0
1664567148.931,-85.449,-41.016,-38.574,-120.117,0
1664567148.935,-101.074,-36.621,-31.738,-118.164,0
1664567148.939,-42.969,-37.598,-35.156,-146.484,0
1664567148.943,-27.832,-42.969,-38.086,-138.672,0
1664567148.947,-75.195,-39.551,-32.227,-141.602,0
1664567148.904,-117.676,-41.016,-30.762,-153.809,0
1664567148.908,-58.105,-46.387,-40.527,-155.273,0
1664567148.912,-21.484,-49.316,-40.527,-150.391,0
1664567148.916,-71.289,-40.039,-35.645,-136.719,0
1664567148.920,-117.188,-34.668,-34.668,-135.742,0
1664567148.924,-62.500,-39.062,-35.156,-144.531,0
1664567148.928,-7.324,-35.156,-31.250,-143.555,0
1664567148.931,-20.020,-36.621,-31.250,-121.094,0
1664567148.935,-96.680,-39.551,-41.504,-124.023,0
1664567148.939,-90.332,-33.203,-38.574,-132.812,0
1664567148.943,-15.137,-35.645,-37.109,-136.230,0
1664567148.947,-24.414,-39.062,-41.016,-139.648,0
1664567148.905,-86.426,-36.621,-38.086,-123.535,0
1664567148.909,-98.145,-40.039,-32.715,-108.887,0
1664567148.913,-31.738,-37.109,-34.668,-110.352,0
1664567148.917,-14.160,-33.203,-37.109,-111.328,0
1664567148.921,-57.617,-30.273,-31.250,-122.559,0
1664567148.925,-81.543,-33.691,-22.949,-116.699,0
1664567148.929,-24.902,-44.434,-16.113,-98.633,0
1664567148.932,6.348,-40.039,-30.273,-111.328,0
1664567148.936,-38.086,-23.438,-38.086,-127.930,0
1664567148.940,-95.215,-21.484,-33.203,-120.117,0
1664567148.944,-61.523,-19.531,-37.598,-109.375,0
1664567148.948,-10.742,-13.184,-42.969,-124.023,0
1664567148.905,-26.367,-20.996,-41.016,-123.535,0
1664567148.909,-83.496,-23.926,-44.922,-113.770,0
1664567148.913,-77.637,-21.484,-50.293,-116.211,0
1664567148.917,-25.391,-30.273,-49.805,-125.977,0
1664567148.921,-27.832,-28.809,-48.340,-129.883,0
1664567148.925,-73.242,-29.785,-41.992,-101.074,0
1664567148.929,-104.980,-38.086,-42.480,-87.402,0
1664567148.932,-41.504,-36.133,-47.363,-121.582,0
1664567148.936,-3.906,-28.809,-42.969,-126.465,0
1664567148.940,-46.875,-31.250,-36.133,-108.398,0
1664567148.944,-87.891,-31.250,-36.133,-101.562,0
1664567148.948,-46.387,-28.320,-42.480,-112.793,0
1664567148.906,0.488,-33.203,-47.363,-125.488,0
1664567148.910,-29.297,-37.598,-45.410,-113.770,0
1664567148.914,-100.098,-40.527,-45.898,-101.074,0
1664567148.918,-76.660,-41.504,-48.828,-113.281,0
1664567148.922,-11.719,-36.133,-42.480,-123.535,0
1664567148.926,-30.273,-33.691,-35.645,-105.957,0
1664567148.930,-97.168,-35.645,-41.016,-98.633,0
1664567148.933,-91.309,-37.109,-47.852,-115.234,0
1664567148.937,-24.414,-39.062,-42.969,-120.117,0
1664567148.941,-23.926,-37.598,-37.598,-111.328,0
1664567148.945,-87.402,-37.109,-45.898,-106.445,0
1664567148.949,-124.512,-40.039,-43.945,-96.680,0
1664567148.906,-62.500,-36.133,-37.109,-112.305,0
1664567148.910,-36.621,-39.551,-45.898,-131.836,0
1664567148.914,-72.754,-40.039,-49.316,-122.070,0
1664567148.918,-108.887,-36.133,-40.527,-114.746,0
1664567148.922,-68.848,-41.504,-37.109,-121.094,0
1664567148.926,-18.066,-41.992,-35.156,-124.023,0
1664567148.930,-45.410,-42.480,-33.691,-121.094,0
1664567148.933,-102.539,-38.574,-40.039,-110.352,0
1664567148.937,-70.801,-35.156,-37.109,-106.934,0
1664567148.941,-9.766,-39.551,-36.621,-119.141,0
1664567148.945,-35.645,-38.086,-39.551,-128.418,0
1664567148.949,-97.656,-39.062,-41.504,-114.258,0
1664567148.907,-91.797,-41.016,-40.527,-108.398,0
1664567148.911,-25.879,-44.434,-37.598,-123.047,0
1664567148.915,-17.090,-46.387,-35.156,-130.371,0
1664567148.919,-79.102,-43.457,-35.645,-105.957,0
1664567148.923,-104.492,-41.016,-39.551,-99.609,0
1664567148.927,-36.621,-39.551,-35.645,-124.512,0
1664567148.931,-20.020,-38.086,-33.691,-124.023,0
1664567148.934,-68.848,-35.645,-33.203,-103.516,0
1664567148.938,-110.352,-40.039,-31.250,-83.984,0
1664567148.942,-78.613,-42.480,-39.062,-101.562,0
1664567148.946,-26.855,-39.551,-43.457,-129.883,0
1664567148.950,-44.434,-42.480,-42.969,-119.629,0
1664567148.908,-96.191,-43.457,-39.551,-95.215,0
1664567148.912,-85.938,-43.457,-46.387,-101.074,0
1664567148.916,-35.156,-44.434,-51.758,-112.305,0
1664567148.920,-35.645,-42.480,-46.875,-101.562,0
1664567148.924,-90.820,-44.434,-47.363,-97.168,0
1664567148.928,-102.051,-44.434,-36.621,-105.469,0
1664567148.932,-41.016,-40.527,-32.715,-117.676,0
1664567148.935,-23.438,-40.527,-38.574,-111.328,0
1664567148.939,-59.082,-43.945,-38.574,-100.098,0
1664567148.943,-95.215,-40.039,-42.969,-114.258,0
1664567148.947,-52.734,-31.738,-40.527,-125.488,0
1664567148.951,-8.789,-33.203,-39.062,-120.117,0
1664567148.908,-35.156,-35.156,-30.762,-106.934,0
1664567148.912,-93.262,-44.434,-28.809,-114.746,0
1664567148.916,-74.707,-51.758,-40.039,-119.141,0
1664567148.920,-18.066,-52.734,-39.062,-121.582,0
1664567148.924,-52.734,-49.805,-39.551,-122.070,0
1664567148.928,-117.188,-52.246,-41.992,-115.723,0
1664567148.932,-100.586,-54.199,-37.109,-116.211,0
1664567148.935,-39.551,-47.852,-32.227,-116.211,0
1664567148.939,-48.340,-51.758,-39.062,-129.883,0
1664567148.943,-100.586,-48.828,-38.086,-121.582,0
1664567148.947,-119.629,-46.387,-34.180,-107.422,0
1664567148.951,-60.547,-44.434,-33.691,-120.117,0
1664567148.910,-40.527,-38.574,-31.250,-138.184,0
1664567148.914,-84.473,-34.668,-28.809,-128.906,0
1664567148.918,-115.723,-30.762,-33.203,-112.305,0
1664567148.922,-76.172,-34.180,-38.574,-124.023,0
1664567148.926,-37.109,-32.715,-40.527,-135.742,0
1664567148.930,-54.199,-25.879,-36.133,-124.023,0
1664567148.934,-108.887,-26.855,-34.180,-96.680,0
1664567148.937,-77.148,-31.250,-37.109,-102.539,0
1664567148.941,-27.344,-27.344,-43.945,-139.160,0
1664567148.945,-35.156,-20.508,-37.598,-129.395,0
1664567148.949,-79.102,-24.902,-30.762,-108.887,0
1664567148.953,-87.402,-26.855,-31.738,-105.957,0
1664567148.910,-30.762,-29.785,-25.391,-108.887,0
1664567148.914,-26.367,-29.785,-20.020,-100.586,0
1664567148.918,-84.961,-31.250,-23.926,-94.727,0
1664567148.922,-112.305,-39.062,-30.273,-105.957,0
1664567148.926,-44.434,-34.180,-31.250,-123.535,0
1664567148.930,-16.113,-38.574,-30.762,-128.418,0
1664567148.934,-58.105,-48.340,-32.715,-113.281,0
1664567148.937,-113.770,-44.922,-37.109,-97.168,0
1664567148.941,-77.148,-42.480,-43.457,-113.770,0
1664567148.945,-10.742,-37.109,-37.598,-113.770,0
1664567148.949,-30.762,-34.180,-29.297,-86.914,0
1664567148.953,-104.980,-40.039,-34.668,-110.840,0
1664567148.921,-85.449,-39.062,-36.133,-120.605,0
1664567148.925,-27.344,-42.480,-39.062,-115.234,0
1664567148.929,-33.691,-47.363,-33.691,-107.910,0
1664567148.933,-84.961,-42.969,-33.691,-97.168,0
1664567148.937,-92.285,-41.016,-36.133,-93.262,0
1664567148.941,-26.367,-43.945,-29.297,-94.727,0
1664567148.945,-10.254,-45.898,-30.762,-86.914,0
1664567148.948,-71.777,-41.992,-43.457,-105.957,0
1664567148.952,-94.727,-36.133,-45.898,-110.352,0
1664567148.956,-33.691,-41.504,-40.527,-104.980,0
1664567148.960,-16.602,-43.457,-41.992,-118.652,0
1664567148.964,-50.781,-41.016,-42.480,-112.793,0
1664567148.921,-86.914,-44.922,-41.016,-103.027,0
1664567148.925,-56.152,-46.387,-40.039,-103.516,0
1664567148.929,-22.949,-38.574,-41.992,-120.605,0
1664567148.933,-56.641,-39.551,-42.969,-133.301,0
1664567148.937,-106.934,-44.434,-40.039,-119.141,0
1664567148.941,-80.078,-42.969,-33.691,-101.074,0
1664567148.945,-25.391,-38.086,-31.250,-107.910,0
1664567148.948,-36.621,-28.809,-32.715,-126.953,0
1664567148.952,-93.262,-32.715,-33.203,-115.234,0
1664567148.956,-98.145,-35.645,-25.879,-93.750,0
1664567148.960,-38.574,-30.762,-31.250,-115.234,0
1664567148.964,-24.414,-31.250,-33.691,-124.023,0
1664567148.921,-58.594,-35.645,-27.832,-108.887,0
1664567148.925,-95.703,-33.691,-31.250,-102.051,0
1664567148.929,-54.688,-29.785,-36.133,-115.723,0
1664567148.933,-17.578,-33.691,-31.738,-125.977,0
1664567148.937,-45.898,-35.156,-29.785,-109.375,0
1664567148.941,-88.379,-34.668,-32.715,-92.773,0
1664567148.945,-72.266,-34.180,-37.109,-109.375,0
1664567148.948,-35.156,-27.832,-41.504,-126.465,0
1664567148.952,-44.922,-27.832,-35.156,-105.957,0
1664567148.956,-103.027,-31.250,-28.809,-83.008,0
1664567148.960,-108.398,-30.273,-38.086,-103.027,0
1664567148.964,-45.410,-36.621,-41.016,-125.000,0
1664567148.921,-40.527,-40.527,-41.504,-107.422,0
1664567148.925,-103.516,-42.480,-47.852,-99.609,0
1664567148.929,-111.816,-39.062,-46.387,-121.094,0
1664567148.933,-42.480,-32.715,-37.598,-122.070,0
1664567148.937,-36.621,-42.969,-35.156,-118.164,0
1664567148.941,-91.797,-47.852,-33.203,-115.234,0
1664567148.945,-132.324,-51.758,-32.227,-114.746,0
1664567148.948,-72.266,-49.805,-37.109,-117.676,0
1664567148.952,-21.484,-42.969,-28.809,-99.609,0
1664567148.956,-74.707,-50.293,-33.203,-114.746,0
1664567148.960,-136.230,-48.340,-33.691,-132.324,0
1664567148.964,-99.609,-38.086,-30.273,-125.977,0
1664567148.921,-46.875,-39.062,-35.645,-129.395,0
1664567148.925,-56.641,-43.457,-37.598,-123.535,0
1664567148.929,-101.562,-45.898,-30.273,-97.168,0
1664567148.933,-96.191,-48.828,-24.902,-81.543,0
1664567148.937,-44.434,-45.898,-29.785,-83.496,0
1664567148.941,-42.969,-45.410,-27.832,-83.984,0
1664567148.945,-87.402,-43.457,-22.461,-80.078,0
1664567148.948,-108.398,-38.086,-21.973,-65.918,0
1664567148.952,-54.688,-43.945,-21.484,-70.312,0
1664567148.956,-44.922,-47.852,-31.738,-92.285,0
1664567148.960,-83.984,-42.969,-32.227,-84.473,0
1664567148.964,-122.559,-41.992,-31.250,-68.848,0
1664567148.921,-71.777,-40.039,-30.762,-78.125,0
1664567148.925,-28.809,-39.062,-31.250,-94.727,0
1664567148.929,-64.941,-41.992,-38.574,-94.727,0
1664567148.933,-110.352,-45.410,-33.203,-81.055,0
1664567148.937,-88.379,-44.922,-32.227,-87.402,0
1664567148.941,-34.668,-43.945,-38.574,-93.262,0
1664567148.945,-44.922,-45.898,-39.062,-90.332,0
1664567148.948,-88.379,-46.387,-32.227,-67.871,0
1664567148.952,-101.074,-46.875,-39.551,-67.871,0
1664567148.956,-41.992,-46.387,-50.293,-107.910,0
1664567148.960,-20.020,-42.969,-43.945,-98.633,0
1664567148.964,-72.266,-42.969,-39.551,-78.613,0
1664567148.923,-94.727,-48.340,-43.457,-81.055,0
1664567148.927,-41.016,-43.945,-37.109,-81.543,0
1664567148.931,-10.254,-41.504,-32.715,-81.055,0
1664567148.935,-52.246,-41.992,-44.434,-77.148,0
1664567148.939,-105.957,-42.969,-46.875,-62.500,0
1664567148.943,-67.383,-43.457,-40.039,-71.289,0
1664567148.947,-18.066,-40.527,-36.621,-91.797,0
1664567148.950,-31.250,-45.898,-41.016,-84.473,0
1664567148.954,-104.492,-41.504,-41.016,-82.520,0
1664567148.958,-96.680,-35.645,-38.574,-86.914,0
1664567148.962,-22.949,-36.621,-37.109,-91.797,0
1664567148.966,-23.926,-37.598,-35.156,-91.309,0
1664567148.926,-81.543,-39.551,-35.645,-87.402,0
1664567148.930,-101.562,-32.715,-34.668,-84.961,0
1664567148.934,-52.246,-39.551,-34.180,-110.840,0
1664567148.938,-43.457,-43.457,-33.203,-119.141,0
1664567148.942,-80.078,-42.969,-30.273,-100.098,0
1664567148.946,-114.258,-49.805,-25.879,-82.031,0
1664567148.950,-59.570,-45.898,-27.832,-79.590,0
1664567148.953,-27.344,-44.434,-33.691,-107.422,0
1664567148.957,-63.477,-42.969,-34.668,-111.328,0
1664567148.961,-105.957,-39.551,-28.320,-87.891,0
1664567148.965,-79.102,-44.922,-31.738,-95.703,0
1664567148.969,-29.785,-41.504,-31.250,-108.398,0
1664567148.973,-43.457,-37.109,-21.973,-98.633,0
1664567148.977,-99.609,-48.340,-20.996,-81.543,0
1664567148.981,-107.422,-50.781,-29.785,-91.797,0
1664567148.985,-45.898,-46.875,-30.273,-105.469,0
1664567148.989,-42.969,-48.340,-30.762,-98.633,0
1664567148.993,-97.168,-52.734,-33.203,-81.055,0
1664567148.997,-118.652,-53.223,-34.668,-61.523,0
1664567149.000,-63.477,-46.875,-37.109,-88.867,0
1664567149.004,-32.715,-44.922,-36.133,-106.445,0
1664567149.008,-71.289,-42.969,-37.109,-83.008,0
1664567149.012,-119.629,-38.086,-41.992,-74.219,0
1664567149.016,-74.707,-44.922,-41.992,-83.496,0
1664567149.031,-26.855,-43.945,-38.086,-89.844,0
1664567149.035,-53.223,-33.203,-35.156,-80.566,0
1664567149.039,-104.004,-40.039,-35.645,-69.824,0
1664567149.043,-62.500,-35.645,-33.203,-71.777,0
1664567149.047,-11.719,-34.180,-34.180,-86.914,0
1664567149.051,-41.504,-42.480,-31.738,-78.125,0
1664567149.055,-99.121,-39.551,-32.227,-67.871,0
1664567149.058,-99.121,-42.480,-40.039,-69.824,0
1664567149.062,-28.320,-44.434,-39.062,-81.055,0
1664567149.066,-21.484,-39.551,-33.203,-71.289,0
1664567149.070,-91.309,-46.875,-36.621,-55.664,0
1664567149.074,-116.211,-49.316,-41.504,-73.730,0
1664567149.076,-54.688,-40.527,-42.969,-90.332,0
1664567149.080,-23.438,-39.551,-41.016,-92.773,0
1664567149.084,-59.082,-37.109,-38.574,-77.637,0
1664567149.088,-102.539,-33.203,-32.715,-63.965,0
1664567149.092,-65.430,-40.527,-26.855,-63.965,0
1664567149.096,-24.902,-48.828,-28.809,-72.754,0
1664567149.100,-48.340,-49.805,-34.668,-76.660,0
1664567149.103,-104.004,-43.945,-30.762,-64.453,0
1664567149.107,-83.984,-39.062,-25.391,-55.664,0
1664567149.111,-25.879,-42.480,-32.227,-55.176,0
1664567149.115,-31.738,-38.086,-41.992,-72.754,0
1664567149.119,-87.891,-35.645,-37.109,-69.824,0
1664567149.121,-99.121,-43.457,-30.273,-56.152,0
1664567149.125,-40.039,-44.922,-37.109,-70.801,0
1664567149.129,-28.320,-40.527,-38.086,-82.031,0
1664567149.133,-75.195,-38.086,-36.621,-69.336,0
1664567149.137,-97.656,-39.551,-35.156,-63.965,0
1664567149.141,-46.875,-41.504,-31.250,-61.523,0
1664567149.145,-25.879,-44.434,-34.180,-62.988,0
1664567149.148,-54.199,-38.574,-41.504,-82.520,0
1664567149.152,-85.938,-34.180,-40.527,-65.430,0
1664567149.156,-55.176,-42.969,-46.875,-67.383,0
1664567149.160,-19.531,-38.086,-54.688,-89.355,0
1664567149.164,-27.344,-31.738,-48.340,-76.660,0
1664567149.166,-73.242,-31.250,-39.551,-59.570,0
1664567149.170,-76.172,-33.691,-42.969,-60.547,0
1664567149.174,-27.832,-36.133,-48.340,-69.336,0
1664567149.178,-30.273,-37.598,-49.805,-78.125,0
1664567149.182,-84.473,-38.574,-48.828,-65.430,0
1664567149.186,-95.703,-38.086,-44.922,-59.570,0
1664567149.190,-21.484,-31.250,-41.992,-68.359,0
1664567149.193,-12.207,-37.109,-40.039,-69.336,0
1664567149.197,-74.219,-42.480,-39.062,-54.688,0
1664567149.201,-122.070,-37.598,-39.062,-56.641,0
1664567149.205,-45.898,-32.715,-33.203,-54.688,0
1664567149.209,2.930,-32.227,-29.297,-52.246,0
1664567149.211,-52.734,-37.109,-30.762,-69.824,0
1664567149.215,-104.492,-34.668,-25.391,-68.359,0
1664567149.219,-76.660,-34.180,-25.391,-70.312,0
1664567149.223,-24.902,-36.621,-34.668,-82.520,0
1664567149.227,-45.410,-37.109,-39.551,-88.379,0
1664567149.231,-98.633,-35.156,-31.250,-76.660,0
1664567149.235,-91.309,-37.598,-29.785,-76.660,0
1664567149.238,-33.203,-42.969,-35.645,-79.102,0
1664567149.242,-42.480,-42.969,-45.898,-83.984,0
1664567149.246,-99.121,-40.527,-47.852,-80.078,0
1664567149.250,-110.352,-39.551,-39.551,-66.406,0
1664567149.254,-64.941,-40.527,-36.621,-81.543,0
1664567149.256,-43.945,-41.504,-35.645,-90.332,0
1664567149.260,-76.660,-37.598,-33.691,-80.078,0
1664567149.264,-121.582,-38.086,-36.133,-75.684,0
1664567149.268,-75.684,-43.945,-46.387,-95.703,0
1664567149.272,-33.691,-41.992,-47.363,-97.656,0
1664567149.276,-67.383,-39.062,-43.945,-80.078,0
1664567149.280,-111.816,-44.434,-44.922,-62.988,0
1664567149.283,-80.078,-45.898,-38.086,-68.359,0
1664567149.287,-38.086,-32.227,-41.504,-95.703,0
1664567149.291,-48.340,-27.832,-41.992,-90.332,0
1664567149.295,-91.309,-34.668,-41.016,-80.078,0
1664567149.299,-104.004,-37.598,-45.410,-88.379,0
1664567149.317,-53.223,-41.016,-41.992,-92.773,0
1664567149.321,-35.156,-43.945,-38.574,-81.543,0
1664567149.325,-78.125,-38.086,-45.898,-62.500,0
1664567149.329,-117.188,-32.715,-48.340,-61.035,0
1664567149.333,-50.293,-45.410,-40.527,-63.965,0
1664567149.337,-14.648,-40.039,-41.504,-70.312,0
1664567149.341,-56.152,-26.367,-49.805,-68.848,0
1664567149.344,-101.562,-24.902,-56.152,-59.082,0
1664567149.348,-70.801,-25.391,-59.570,-76.172,0
1664567149.352,-18.555,-30.273,-54.199,-87.891,0
1664567149.356,-40.039,-27.832,-50.781,-67.871,0
1664567149.360,-83.984,-26.855,-46.387,-43.945,0
1664567149.347,-57.617,-24.902,-36.133,-45.898,0
1664567149.351,-4.883,-26.367,-37.109,-59.082,0
1664567149.355,-11.230,-31.250,-41.992,-51.270,0
1664567149.359,-66.406,-30.762,-41.504,-54.688,0
1664567149.363,-76.660,-29.785,-41.992,-62.500,0
1664567149.367,-21.484,-31.250,-42.480,-66.895,0
1664567149.371,-12.695,-37.109,-42.969,-74.707,0
1664567149.374,-62.500,-35.156,-46.875,-59.082,0
1664567149.378,-104.492,-34.668,-47.363,-61.523,0
1664567149.382,-46.875,-40.527,-45.410,-77.637,0
1664567149.386,-11.719,-45.410,-42.480,-80.078,0
1664567149.390,-52.246,-41.016,-46.875,-84.473,0
1664567149.437,-105.469,-36.133,-44.434,-76.660,0
1664567149.441,-74.707,-36.621,-46.387,-88.867,0
1664567149.445,-13.184,-32.715,-76.660,-104.492,0
1664567149.449,-23.438,-29.297,-88.379,-88.379,0
1664567149.453,-73.730,-29.297,-84.473,-66.406,0
1664567149.457,-56.641,-33.691,-84.961,-65.918,0
1664567149.461,-6.836,-38.086,-85.938,-80.566,0
1664567149.464,-23.438,-39.062,-91.309,-88.867,0
1664567149.468,-88.379,-39.062,-84.473,-72.266,0
1664567149.472,-98.145,-36.621,-72.266,-58.594,0
1664567149.476,-35.156,-40.039,-73.242,-87.402,0
1664567149.480,-31.250,-40.039,-71.289,-87.891,0
1664567149.454,-77.148,-39.551,-65.430,-81.543,0
1664567149.458,-112.793,-41.504,-62.500,-88.867,0
1664567149.462,-53.223,-32.715,-59.570,-94.238,0
1664567149.466,-14.648,-29.785,-59.570,-102.539,0
1664567149.470,-49.805,-34.668,-61.523,-89.844,0
1664567149.474,-96.191,-41.504,-54.688,-72.754,0
1664567149.478,-67.383,-41.992,-50.293,-81.543,0
1664567149.481,-22.461,-40.527,-51.270,-99.609,0
1664567149.485,-41.504,-39.551,-57.617,-96.680,0
1664567149.489,-97.168,-39.551,-60.547,-81.543,0
1664567149.493,-100.098,-36.621,-50.781,-87.891,0
1664567149.497,-36.133,-32.227,-48.828,-99.609,0
1664567149.497,-35.156,-32.227,-51.270,-95.703,0
1664567149.501,-100.586,-38.086,-50.781,-86.914,0
1664567149.505,-127.441,-40.527,-49.805,-78.613,0
1664567149.509,-61.523,-32.227,-48.340,-101.074,0
1664567149.513,-24.902,-32.715,-44.434,-102.051,0
1664567149.517,-61.523,-38.086,-45.898,-83.984,0
1664567149.521,-114.746,-36.133,-49.316,-81.055,0
1664567149.524,-71.777,-30.273,-45.898,-88.867,0
1664567149.528,-13.184,-31.738,-31.738,-88.867,0
1664567149.532,-50.781,-33.203,-33.203,-83.496,0
1664567149.536,-111.816,-34.180,-47.852,-87.402,0
1664567149.540,-69.336,-30.273,-41.992,-80.566,0
1664567149.557,-10.742,-26.367,-34.668,-95.703,0
1664567149.561,-29.785,-31.250,-36.621,-101.074,0
1664567149.565,-84.961,-33.691,-36.133,-76.172,0
1664567149.569,-89.844,-35.645,-38.086,-76.660,0
1664567149.573,-26.367,-38.086,-41.504,-92.773,0
1664567149.577,-16.113,-34.668,-35.156,-92.285,0
1664567149.581,-72.266,-35.645,-33.203,-88.379,0
1664567149.584,-92.773,-41.504,-36.133,-70.312,0
1664567149.588,-37.598,-39.062,-34.668,-57.129,0
1664567149.592,-24.902,-35.156,-35.645,-77.637,0
1664567149.596,-54.199,-32.227,-37.598,-76.172,0
1664567149.600,-88.867,-39.062,-44.434,-59.082,0
1664567149.587,-54.199,-48.340,-42.969,-69.824,0
1664567149.591,-15.625,-47.852,-40.039,-90.332,0
1664567149.595,-50.781,-46.387,-37.109,-84.473,0
1664567149.599,-99.609,-45.898,-35.156,-57.129,0
1664567149.603,-83.496,-41.504,-44.922,-70.801,0
1664567149.607,-31.250,-37.109,-48.828,-103.516,0
1664567149.611,-40.527,-41.992,-47.363,-96.680,0
1664567149.614,-96.680,-45.410,-42.969,-76.660,0
1664567149.618,-101.074,-41.016,-37.109,-81.055,0
1664567149.622,-36.133,-40.527,-33.203,-94.727,0
1664567149.626,-23.438,-45.898,-35.645,-104.004,0
1664567149.630,-68.848,-51.270,-32.227,-86.914,0
1664567149.648,-115.234,-49.805,-35.156,-89.355,0
1664567149.652,-68.359,-47.852,-45.410,-115.723,0
1664567149.656,-35.645,-41.504,-41.992,-120.605,0
1664567149.660,-71.777,-35.156,-38.574,-102.539,0
1664567149.664,-118.164,-39.062,-38.574,-88.867,0
1664567149.668,-73.730,-40.039,-37.598,-85.938,0
1664567149.672,-24.902,-38.086,-32.715,-94.238,0
1664567149.675,-47.852,-35.645,-27.344,-89.355,0
1664567149.679,-101.562,-37.109,-34.180,-80.078,0
1664567149.683,-95.703,-40.039,-38.086,-82.520,0
1664567149.687,-35.156,-41.992,-30.762,-91.797,0
1664567149.691,-42.480,-43.945,-28.809,-83.984,0
1664567149.692,-93.750,-41.992,-33.203,-76.660,0
1664567149.696,-97.656,-44.922,-31.738,-83.008,0
1664567149.700,-40.527,-46.387,-26.855,-89.355,0
1664567149.704,-36.621,-45.410,-30.273,-99.121,0
1664567149.708,-74.219,-47.363,-32.227,-80.078,0
1664567149.712,-118.164,-38.574,-25.879,-58.594,0
1664567149.716,-84.473,-39.551,-31.250,-75.195,0
1664567149.719,-43.945,-44.434,-38.574,-89.355,0
1664567149.723,-73.242,-44.434,-37.109,-83.496,0
1664567149.727,-117.676,-45.410,-33.691,-74.707,0
1664567149.731,-72.266,-42.480,-27.832,-60.059,0
1664567149.735,-26.855,-44.434,-34.180,-77.637,0
1664567149.722,-58.594,-39.551,-40.039,-95.215,0
1664567149.726,-107.422,-41.016,-36.621,-79.590,0
1664567149.730,-98.633,-45.410,-35.156,-79.102,0
1664567149.734,-43.457,-45.410,-37.598,-95.215,0
1664567149.738,-40.527,-45.898,-37.109,-98.633,0
1664567149.742,-83.984,-50.781,-39.062,-77.637,0
1664567149.746,-101.562,-57.129,-40.039,-42.480,0
1664567149.749,-44.434,-44.922,-40.039,-56.641,0
1664567149.753,-28.809,-37.109,-40.527,-96.191,0
1664567149.757,-75.684,-42.480,-31.250,-73.730,0
1664567149.761,-122.559,-47.852,-32.715,-50.293,0
1664567149.765,-88.379,-41.016,-42.969,-73.242,0
1664567149.782,-38.574,-38.574,-34.668,-74.707,0
1664567149.786,-73.242,-46.387,-34.668,-78.613,0
1664567149.790,-127.441,-41.504,-38.086,-84.961,0
