timestamps,TP9,AF7,AF8,TP10,marker
1664555624.874,-20.996,-6.836,-7.812,-66.895,0
1664555624.878,6.836,8.301,-9.277,-38.086,0
1664555624.882,5.859,-41.016,-9.766,-49.316,0
1664555624.886,-26.367,-45.410,-13.672,-92.285,0
1664555624.890,-20.020,-14.648,-13.672,-82.031,0
1664555624.894,12.695,-29.297,-10.742,-30.273,0
1664555624.898,7.324,-29.297,-12.207,-39.062,0
1664555624.901,-20.996,-75.195,-11.230,-70.312,0
1664555624.905,-32.227,-33.203,-10.742,-81.543,0
1664555624.909,2.930,30.273,-14.648,-62.500,0
1664555624.913,17.578,-22.949,-16.113,-49.316,0
1664555624.917,-12.695,-38.086,-17.578,-80.078,0
1664555624.920,-36.621,-23.438,-16.602,-104.980,0
1664555624.924,1.953,-16.113,-11.230,-61.523,0
1664555624.928,22.461,-24.902,-8.301,-34.180,0
1664555624.932,-4.395,-32.227,-8.301,-57.129,0
1664555624.936,-45.410,-17.090,-9.277,-100.098,0
1664555624.940,-17.578,-22.461,-12.207,-60.547,0
1664555624.944,13.184,-59.570,-14.160,-18.555,0
1664555624.947,2.930,-62.988,-13.184,-41.504,0
1664555624.951,-41.504,12.207,-17.578,-102.051,0
1664555624.955,-38.086,0.977,-20.508,-89.355,0
1664555624.959,-3.418,-32.227,-14.160,-33.691,0
1664555624.963,-3.418,-13.672,-13.672,-39.062,0
1664555624.964,-37.598,-10.742,-17.090,-82.520,0
1664555624.968,-54.199,-23.438,-13.672,-89.355,0
1664555624.972,-17.090,-45.410,-10.742,-42.480,0
1664555624.976,-12.695,-44.922,-8.301,-31.250,0
1664555624.980,-44.922,-19.531,-10.254,-64.941,0
1664555624.984,-65.430,-34.180,-11.230,-87.402,0
1664555624.988,-30.273,-73.730,-10.742,-29.785,0
1664555624.991,-19.043,-27.832,-15.137,-8.301,0
1664555624.995,-45.410,26.367,-16.113,-56.152,0
1664555624.999,-70.801,-16.602,-12.695,-81.055,0
1664555625.003,-42.480,-16.602,-10.742,-45.898,0
1664555625.007,-16.602,5.371,-8.789,-21.484,0
1664555625.009,-22.461,-3.906,-7.324,-34.668,0
1664555625.013,-61.035,-28.809,-11.230,-71.777,0
1664555625.017,-58.594,-34.668,-13.672,-60.547,0
1664555625.021,-18.555,5.371,-9.766,-19.531,0
1664555625.025,-18.066,-10.254,-11.230,-23.438,0
1664555625.029,-49.805,-87.402,-10.742,-51.758,0
1664555625.033,-66.406,-87.402,-12.207,-59.570,0
1664555625.036,-29.785,1.465,-14.160,-29.785,0
1664555625.040,-8.789,14.648,-11.230,-28.320,0
1664555625.044,-28.320,-40.527,-9.277,-51.758,0
1664555625.048,-61.035,-30.762,-9.766,-83.984,0
1664555625.052,-38.574,5.859,-14.160,-59.570,0
1664555625.069,-18.555,-17.090,-17.090,-19.531,0
1664555625.073,-35.156,-37.109,-16.602,-36.621,0
1664555625.077,-76.172,-51.270,-21.484,-85.938,0
1664555625.081,-61.035,-20.020,-19.531,-76.660,0
1664555625.085,-20.020,-4.883,-18.555,-37.598,0
1664555625.089,-21.973,-47.363,-20.508,-32.715,0
1664555625.093,-68.848,-34.180,-20.996,-81.543,0
1664555625.096,-70.801,-5.859,-23.438,-83.008,0
1664555625.100,-26.855,-38.574,-20.508,-29.785,0
1664555625.104,-20.020,-56.152,-23.926,-24.902,0
1664555625.108,-52.246,-22.461,-22.949,-66.406,0
1664555625.112,-76.660,-11.719,-19.043,-90.820,0
1664555625.114,-23.926,-25.879,-13.184,-33.691,0
1664555625.118,-1.465,-25.879,-11.719,-9.766,0
1664555625.122,-38.574,-10.254,-17.578,-52.734,0
1664555625.126,-66.895,-18.555,-15.137,-80.566,0
1664555625.130,-30.762,-41.016,-13.672,-39.551,0
1664555625.134,-3.418,-52.246,-20.508,-9.277,0
1664555625.138,-20.508,-19.043,-20.508,-35.645,0
1664555625.141,-65.430,1.465,-16.113,-88.379,0
1664555625.145,-46.387,-54.688,-13.184,-56.641,0
1664555625.149,-2.930,-64.453,-10.254,-3.418,0
1664555625.153,-16.602,7.812,-12.207,-36.133,0
1664555625.157,-53.711,-0.977,-17.090,-87.402,0
1664555625.160,-57.129,-25.391,-19.043,-78.125,0
1664555625.164,-13.184,-10.254,-17.090,-29.297,0
1664555625.168,-2.441,-16.113,-17.090,-22.461,0
1664555625.172,-35.645,-31.250,-24.902,-56.641,0
1664555625.176,-66.406,-27.344,-20.996,-82.520,0
1664555625.180,-21.973,-35.156,-7.812,-26.855,0
1664555625.184,11.230,-12.695,-5.859,-0.977,0
1664555625.187,-24.902,10.254,-14.648,-63.965,0
1664555625.191,-71.289,-57.617,-23.438,-99.121,0
1664555625.195,-51.270,-13.672,-20.020,-63.477,0
1664555625.199,-23.926,56.152,-15.137,-47.852,0
1664555625.203,-31.250,-9.766,-15.137,-59.570,0
1664555625.205,-66.406,-44.434,-20.996,-98.633,0
1664555625.209,-63.477,-1.465,-24.414,-99.609,0
1664555625.213,-22.461,6.836,-20.508,-59.570,0
1664555625.217,-13.184,-30.273,-18.066,-50.781,0
1664555625.221,-49.805,-49.805,-20.508,-90.332,0
1664555625.225,-61.035,-46.387,-20.020,-102.539,0
1664555625.229,-20.508,-26.855,-21.484,-66.895,0
1664555625.232,-4.883,-51.758,-23.438,-51.758,0
1664555625.236,-29.297,-65.918,-20.508,-82.031,0
1664555625.240,-66.895,12.695,-23.926,-130.859,0
1664555625.244,-29.297,13.184,-19.531,-84.473,0
1664555625.248,3.906,-14.160,-8.789,-39.551,0
1664555625.249,-13.672,-0.488,-14.648,-70.801,0
1664555625.253,-54.199,-7.812,-14.648,-118.652,0
1664555625.257,-37.598,-35.645,-13.184,-86.426,0
1664555625.261,-2.441,-31.738,-25.879,-47.852,0
1664555625.265,-7.812,-21.973,-28.320,-68.848,0
1664555625.269,-48.340,-34.180,-24.902,-112.793,0
1664555625.273,-53.711,-24.902,-22.461,-101.562,0
1664555625.276,-18.066,-67.383,-18.066,-37.109,0
1664555625.280,-16.113,-35.645,-19.531,-44.434,0
1664555625.284,-49.316,28.320,-22.461,-110.840,0
1664555625.288,-62.500,-22.949,-21.973,-111.816,0
1664555625.292,-25.391,-29.785,-25.879,-64.453,0
1664555625.309,-12.207,6.348,-20.996,-58.105,0
1664555625.313,-34.668,13.672,-14.648,-91.309,0
1664555625.317,-67.871,-29.297,-15.625,-116.211,0
1664555625.321,-41.504,-33.203,-14.160,-74.707,0
1664555625.325,-20.508,-9.277,-14.648,-51.758,0
1664555625.329,-32.715,-26.855,-19.531,-75.195,0
1664555625.333,-64.453,-74.707,-19.043,-96.680,0
1664555625.336,-60.059,-66.895,-16.113,-72.754,0
1664555625.340,-29.785,22.949,-18.555,-58.594,0
1664555625.344,-25.879,8.301,-22.461,-65.430,0
1664555625.348,-67.871,-42.969,-23.926,-101.074,0
1664555625.352,-72.754,-28.320,-23.438,-100.098,0
1664555625.340,-35.156,-3.906,-23.926,-57.129,0
1664555625.344,-25.879,-27.344,-19.043,-51.270,0
1664555625.348,-52.246,-62.988,-15.625,-78.125,0
1664555625.352,-81.055,-35.645,-17.578,-104.980,0
1664555625.356,-42.480,-9.277,-20.020,-71.289,0
1664555625.360,-19.531,-46.387,-19.043,-42.480,0
1664555625.364,-45.410,-47.852,-19.043,-70.801,0
1664555625.367,-78.613,-24.902,-16.113,-108.887,0
1664555625.371,-55.664,-4.395,-15.137,-75.684,0
1664555625.375,-19.531,-23.438,-23.438,-34.668,0
1664555625.379,-28.320,-84.961,-23.926,-41.016,0
1664555625.383,-71.777,-38.574,-16.113,-91.309,0
1664555625.384,-55.664,20.020,-11.230,-80.566,0
1664555625.388,-11.230,-15.137,-8.789,-18.555,0
1664555625.392,-8.789,-22.461,-8.301,-21.973,0
1664555625.396,-53.711,-12.207,-12.207,-77.637,0
1664555625.400,-63.477,-14.648,-19.531,-82.031,0
1664555625.404,-19.043,-62.012,-19.531,-20.508,0
1664555625.408,-18.066,-69.824,-19.043,-15.137,0
1664555625.411,-50.781,6.836,-18.066,-70.312,0
1664555625.415,-67.383,-3.906,-15.625,-87.402,0
1664555625.419,-33.691,-47.363,-17.578,-38.574,0
1664555625.423,-16.602,-20.996,-15.625,-23.926,0
1664555625.427,-43.945,4.395,-21.973,-63.477,0
1664555625.444,-83.496,-27.832,-26.367,-101.562,0
1664555625.448,-57.617,-25.879,-20.020,-72.754,0
1664555625.452,-30.273,-28.320,-23.926,-37.109,0
1664555625.456,-38.086,-17.090,-25.391,-52.734,0
1664555625.460,-71.777,-16.602,-19.043,-91.309,0
1664555625.464,-59.082,-56.641,-11.719,-59.082,0
1664555625.468,-17.578,-26.367,-9.766,-21.484,0
1664555625.471,-21.973,11.230,-16.602,-43.457,0
1664555625.475,-58.105,-29.785,-17.090,-76.172,0
1664555625.479,-72.266,-63.477,-20.996,-69.336,0
1664555625.483,-42.969,-11.719,-25.879,-36.133,0
1664555625.487,-29.785,-7.812,-22.461,-31.738,0
1664555625.490,-57.617,-51.758,-27.344,-62.988,0
1664555625.494,-89.844,-34.668,-31.738,-95.703,0
1664555625.498,-48.340,-9.277,-29.297,-55.176,0
1664555625.502,-19.531,-13.184,-16.602,-21.973,0
1664555625.506,-41.992,-45.410,-6.836,-40.527,0
1664555625.510,-73.242,-73.730,-12.695,-78.125,0
1664555625.514,-63.965,-32.227,-17.090,-63.477,0
1664555625.517,-38.574,-2.441,-18.066,-35.645,0
1664555625.521,-30.273,-60.547,-20.020,-38.574,0
1664555625.525,-79.590,-65.430,-26.367,-89.355,0
1664555625.529,-86.914,-28.809,-22.949,-92.773,0
1664555625.533,-43.945,-38.574,-20.996,-45.898,0
1664555625.549,-34.180,-88.379,-29.297,-37.598,0
1664555625.553,-61.523,-88.379,-32.715,-80.566,0
1664555625.557,-88.867,-33.203,-31.738,-104.492,0
1664555625.561,-48.340,-40.527,-25.879,-48.340,0
1664555625.565,-29.297,-25.391,-25.879,-37.109,0
1664555625.569,-57.129,-34.180,-33.203,-72.754,0
1664555625.573,-83.984,-23.926,-34.668,-101.562,0
1664555625.576,-51.270,-6.348,-23.926,-66.406,0
1664555625.580,-22.461,-71.289,-21.973,-21.973,0
1664555625.584,-39.062,-37.109,-26.855,-51.758,0
1664555625.588,-75.195,15.625,-20.996,-112.305,0
1664555625.592,-53.711,-33.203,-21.973,-74.219,0
1664555625.580,-19.531,-38.086,-23.438,-29.297,0
1664555625.584,-21.973,-2.441,-19.531,-46.875,0
1664555625.588,-58.594,-6.836,-21.973,-95.703,0
1664555625.592,-63.477,-45.898,-23.438,-88.379,0
1664555625.596,-27.832,-61.523,-27.344,-39.551,0
1664555625.600,-18.066,-38.574,-33.691,-43.457,0
1664555625.604,-47.852,-21.484,-29.297,-81.055,0
1664555625.607,-69.336,-57.129,-21.484,-87.891,0
1664555625.611,-32.227,-49.316,-21.973,-40.039,0
1664555625.615,-21.973,17.578,-20.996,-43.457,0
1664555625.619,-44.434,9.277,-13.672,-78.613,0
1664555625.623,-68.359,-71.777,-19.043,-87.402,0
1664555625.650,-40.039,-77.148,-30.273,-51.270,0
1664555625.654,-9.766,12.695,-29.297,-45.898,0
1664555625.658,-13.184,-27.344,-28.320,-65.918,0
1664555625.662,-57.617,-41.504,-32.715,-113.770,0
1664555625.666,-47.852,1.465,-29.785,-99.609,0
1664555625.670,-12.207,-20.020,-29.297,-53.223,0
1664555625.674,-17.090,-36.133,-28.320,-60.059,0
1664555625.677,-47.852,-69.824,-26.367,-77.148,0
1664555625.681,-65.430,-35.156,-28.320,-82.520,0
1664555625.685,-37.109,22.949,-29.297,-57.617,0
1664555625.689,-17.090,-21.484,-26.367,-37.109,0
1664555625.693,-41.016,-39.551,-24.902,-70.312,0
1664555625.669,-73.730,-19.531,-20.508,-100.098,0
1664555625.673,-47.852,-12.695,-26.367,-66.895,0
1664555625.677,-23.438,-43.945,-38.086,-36.133,0
1664555625.681,-32.715,-44.922,-32.227,-60.547,0
1664555625.685,-64.453,-25.879,-25.879,-101.074,0
1664555625.689,-39.062,-38.086,-21.484,-66.406,0
1664555625.693,-4.883,-68.848,-24.902,-27.344,0
1664555625.696,-17.090,-72.754,-24.902,-34.180,0
1664555625.700,-65.430,-6.836,-19.531,-94.727,0
1664555625.704,-61.035,-12.207,-20.020,-85.938,0
1664555625.708,-20.020,-27.344,-15.625,-28.320,0
1664555625.712,-17.578,-7.812,-12.695,-31.738,0
1664555625.715,-57.129,-5.859,-16.602,-84.961,0
1664555625.719,-75.684,-25.879,-19.043,-96.191,0
1664555625.723,-41.016,-50.293,-20.996,-49.805,0
1664555625.727,-30.273,-31.250,-20.996,-43.457,0
1664555625.731,-57.129,-20.508,-23.926,-85.449,0
1664555625.735,-85.449,-51.758,-22.461,-112.305,0
1664555625.739,-54.199,-86.914,-20.020,-64.453,0
1664555625.742,-37.109,-44.434,-23.926,-52.734,0
1664555625.746,-61.523,20.020,-22.461,-88.867,0
1664555625.750,-94.238,-25.391,-20.996,-113.770,0
1664555625.754,-70.312,-46.875,-24.414,-81.543,0
1664555625.758,-33.691,-26.367,-27.832,-44.434,0
1664555625.759,-41.504,0.977,-26.367,-62.988,0
1664555625.763,-75.195,-29.297,-20.020,-100.098,0
1664555625.767,-72.266,-43.457,-19.531,-81.055,0
1664555625.771,-34.180,-5.859,-19.531,-43.457,0
1664555625.775,-20.020,-1.465,-10.254,-45.410,0
1664555625.779,-56.152,-74.219,-12.207,-83.984,0
1664555625.783,-80.078,-106.934,-20.020,-94.238,0
1664555625.786,-48.828,1.953,-12.695,-66.406,0
1664555625.790,-46.387,9.766,-19.043,-67.871,0
1664555625.794,-75.684,-37.598,-20.508,-98.633,0
1664555625.798,-108.887,-13.184,-10.742,-134.766,0
1664555625.802,-79.102,13.672,3.418,-97.656,0
1664555625.820,-56.641,3.418,5.371,-73.242,0
1664555625.824,-83.008,-27.344,-5.371,-102.539,0
1664555625.828,-122.559,-27.832,6.836,-139.160,0
1664555625.832,-121.094,24.902,6.836,-140.625,0
1664555625.836,-113.770,8.789,-1.953,-128.906,0
1664555625.840,-121.094,-37.598,0.977,-139.160,0
1664555625.844,-163.574,4.395,0.977,-202.637,0
1664555625.847,-178.711,49.805,12.207,-223.145,0
1664555625.851,-148.438,40.039,3.906,-190.918,0
1664555625.855,-142.090,4.395,4.883,-180.176,0
1664555625.859,-193.848,39.062,1.465,-241.211,0
1664555625.863,-241.211,66.406,-15.625,-298.340,0
1664555625.864,-201.660,34.180,-7.812,-252.930,0
1664555625.868,-196.289,33.203,-2.441,-236.328,0
1664555625.872,-230.957,52.246,7.812,-268.555,0
1664555625.876,-269.043,23.926,13.672,-306.641,0
1664555625.880,-254.395,-4.395,7.812,-288.086,0
1664555625.884,-222.168,8.301,9.277,-249.023,0
1664555625.888,-238.281,38.086,17.578,-269.043,0
1664555625.891,-287.598,45.410,18.066,-333.008,0
1664555625.895,-268.066,-15.625,17.090,-304.199,0
1664555625.899,-228.027,-33.203,13.184,-247.070,0
1664555625.903,-234.375,54.688,7.324,-277.344,0
1664555625.907,-261.719,41.504,16.113,-321.777,0
1664555625.911,-262.207,-6.836,26.367,-306.152,0
1664555625.915,-221.680,20.020,18.066,-255.859,0
1664555625.919,-199.707,15.137,8.301,-236.328,0
1664555625.923,-219.727,-2.441,12.207,-265.625,0
1664555625.927,-236.328,9.277,20.020,-282.715,0
1664555625.931,-183.105,9.766,18.066,-219.238,0
1664555625.935,-153.809,12.207,10.742,-185.547,0
1664555625.938,-163.086,-10.254,15.625,-194.336,0
1664555625.942,-170.410,-27.832,5.859,-214.355,0
1664555625.946,-130.371,5.859,-6.836,-178.711,0
1664555625.950,-98.633,16.602,-11.230,-135.254,0
1664555625.954,-92.285,-42.969,-18.555,-130.371,0
1664555625.954,-112.305,-61.523,-24.902,-144.531,0
1664555625.958,-101.074,2.441,-27.832,-127.441,0
1664555625.962,-48.340,2.441,-27.832,-73.730,0
1664555625.966,-27.344,-46.387,-34.668,-51.758,0
1664555625.970,-57.129,-58.594,-38.086,-83.496,0
1664555625.974,-57.617,-66.406,-37.109,-74.219,0
1664555625.978,-1.953,-49.805,-37.598,-20.508,0
1664555625.981,18.555,-74.707,-45.410,-2.441,0
1664555625.985,-10.254,-105.469,-57.617,-31.250,0
1664555625.989,-51.270,-41.504,-63.477,-88.379,0
1664555625.993,-12.695,-43.945,-59.570,-45.898,0
1664555625.997,27.832,-77.637,-63.477,0.488,0
1664555625.999,24.414,-73.242,-65.918,-17.090,0
1664555626.003,-8.789,-65.918,-59.082,-52.734,0
1664555626.007,20.020,-89.355,-59.082,-18.555,0
1664555626.011,58.105,-82.031,-63.965,15.137,0
1664555626.015,46.875,-72.266,-67.383,-4.395,0
1664555626.019,17.090,-100.098,-68.848,-34.668,0
1664555626.023,27.832,-80.566,-68.359,-25.391,0
1664555626.026,67.383,-115.234,-67.871,31.250,0
1664555626.030,74.707,-89.844,-65.430,33.203,0
1664555626.034,49.805,-30.273,-67.871,-20.996,0
1664555626.038,45.410,-78.613,-67.383,-16.602,0
1664555626.042,83.008,-77.637,-60.547,33.203,0
1664555626.045,87.891,-50.293,-63.965,28.320,0
1664555626.049,69.336,-48.340,-60.547,-1.953,0
1664555626.053,38.086,-85.449,-63.477,-23.438,0
1664555626.057,59.082,-88.867,-72.754,2.441,0
1664555626.061,84.961,-52.246,-67.383,23.438,0
1664555626.065,67.871,-76.172,-60.547,4.883,0
1664555626.069,24.902,-123.047,-60.059,-26.367,0
1664555626.072,28.809,-112.793,-62.012,-7.812,0
1664555626.076,54.199,-31.250,-58.105,6.348,0
1664555626.080,51.758,-39.551,-55.176,-11.719,0
1664555626.084,20.996,-75.195,-53.711,-43.945,0
1664555626.088,22.461,-57.617,-47.363,-34.668,0
1664555626.089,62.012,-49.316,-43.945,12.695,0
1664555626.093,62.988,-72.754,-46.387,19.531,0
1664555626.097,30.273,-81.055,-46.387,-18.066,0
1664555626.101,0.488,-50.293,-42.969,-43.945,0
1664555626.105,18.555,-46.875,-39.551,-8.789,0
1664555626.109,37.109,-64.941,-34.668,13.672,0
1664555626.113,21.484,-103.027,-39.062,-3.418,0
1664555626.116,-20.996,-71.777,-48.828,-52.246,0
1664555626.120,1.465,-3.418,-46.875,-39.551,0
1664555626.124,30.273,-43.945,-42.969,-0.977,0
1664555626.128,19.531,-56.641,-45.410,-20.508,0
1664555626.132,-21.973,-30.762,-42.480,-64.453,0
1664555626.134,-17.090,-27.832,-33.691,-50.293,0
1664555626.138,19.531,-52.734,-38.086,-15.625,0
1664555626.142,14.648,-64.453,-45.410,-26.367,0
1664555626.146,-34.180,-49.316,-48.828,-76.660,0
1664555626.150,-48.828,-34.668,-45.898,-86.914,0
1664555626.154,-8.301,-80.078,-43.945,-32.227,0
1664555626.158,-6.348,-101.074,-46.387,-20.508,0
1664555626.161,-44.922,-22.461,-44.434,-80.566,0
1664555626.165,-59.570,-16.113,-38.086,-108.887,0
1664555626.169,-22.461,-55.176,-41.992,-63.965,0
1664555626.173,-6.348,-45.410,-45.410,-47.852,0
1664555626.177,-17.578,-26.855,-36.621,-78.613,0
1664555626.194,-47.363,-40.039,-31.250,-106.934,0
1664555626.198,-22.949,-58.594,-29.785,-74.219,0
1664555626.202,4.883,-60.059,-31.250,-47.363,0
1664555626.206,-4.883,-31.738,-30.762,-68.359,0
1664555626.210,-43.457,-44.434,-25.879,-110.840,0
1664555626.214,-33.691,-71.777,-25.879,-90.820,0
1664555626.218,5.859,-53.223,-27.832,-47.363,0
1664555626.221,-0.977,-23.926,-29.297,-72.754,0
1664555626.225,-36.133,-32.227,-29.785,-129.883,0
1664555626.229,-46.387,-76.660,-31.738,-126.953,0
1664555626.233,-16.113,-26.855,-30.273,-83.984,0
1664555626.237,-8.301,1.465,-24.414,-84.473,0
1664555626.239,-43.945,-53.711,-25.391,-126.953,0
1664555626.243,-88.867,-68.848,-25.879,-160.645,0
1664555626.247,-62.012,-31.738,-26.855,-135.254,0
1664555626.251,-44.434,-19.043,-27.344,-122.559,0
1664555626.255,-76.172,-58.105,-26.855,-141.113,0
1664555626.259,-127.441,-83.496,-30.273,-178.223,0
1664555626.263,-119.141,-41.504,-32.715,-166.504,0
1664555626.266,-92.285,-22.461,-26.855,-137.695,0
1664555626.270,-106.445,-75.684,-24.414,-137.695,0
1664555626.274,-171.387,-85.938,-25.879,-183.594,0
1664555626.278,-194.824,-2.930,-18.555,-200.195,0
1664555626.282,-166.992,-12.207,-16.113,-160.645,0
1664555626.284,-182.129,-49.316,-27.344,-165.039,0
1664555626.288,-246.582,-48.340,-32.715,-220.703,0
1664555626.292,-283.203,-67.383,-39.062,-239.258,0
1664555626.296,-256.836,-71.289,-41.016,-192.871,0
1664555626.300,-265.625,-51.758,-32.715,-180.664,0
1664555626.304,-311.523,-57.129,-28.320,-220.703,0
1664555626.308,-370.117,-38.086,-28.809,-272.461,0
1664555626.311,-372.559,-19.043,-31.738,-250.488,0
1664555626.315,-381.348,-85.938,-32.227,-206.543,0
1664555626.319,-448.730,-74.707,-38.574,-235.840,0
1664555626.323,-536.133,-27.832,-41.992,-300.781,0
1664555626.327,-558.105,-44.434,-43.457,-283.203,0
1664555626.329,-547.363,-51.758,-41.992,-247.070,0
1664555626.333,-569.824,-37.109,-37.598,-259.277,0
1664555626.337,-624.512,-39.062,-32.715,-299.805,0
1664555626.341,-641.602,-67.383,-32.715,-293.457,0
1664555626.345,-610.840,-80.078,-34.180,-248.535,0
1664555626.349,-616.699,-71.289,-34.180,-253.418,0
1664555626.353,-662.598,-49.316,-36.621,-301.270,0
1664555626.356,-691.895,-89.844,-34.668,-302.246,0
1664555626.360,-669.922,-104.004,-36.621,-246.094,0
1664555626.364,-671.875,-14.160,-39.062,-255.859,0
1664555626.368,-711.426,-33.691,-31.738,-290.527,0
1664555626.372,-775.879,-88.379,-33.691,-323.730,0
1664555626.374,-782.227,-63.965,-39.551,-300.293,0
1664555626.378,-776.367,-20.996,-36.133,-272.461,0
1664555626.382,-804.688,-58.105,-31.250,-276.367,0
1664555626.386,-875.000,-75.195,-32.715,-310.547,0
1664555626.390,-897.949,-45.410,-34.180,-305.176,0
1664555626.394,-880.859,-58.594,-34.668,-258.301,0
1664555626.398,-895.508,-55.176,-32.715,-260.254,0
1664555626.401,-951.172,-92.285,-36.621,-294.434,0
1664555626.405,-979.492,-68.359,-47.363,-297.363,0
1664555626.409,-940.430,7.324,-38.574,-264.648,0
1664555626.413,-915.527,-29.785,-31.738,-234.375,0
1664555626.417,-933.594,-60.547,-31.250,-250.977,0
1664555626.419,-954.590,-47.852,-35.645,-274.902,0
1664555626.423,-894.043,-37.598,-41.016,-225.098,0
1664555626.427,-846.680,-59.570,-32.715,-178.711,0
1664555626.431,-848.633,-62.988,-34.668,-197.266,0
1664555626.435,-865.234,-46.387,-36.621,-226.562,0
1664555626.439,-813.965,-54.199,-33.203,-175.781,0
1664555626.443,-750.000,-77.148,-29.785,-122.559,0
1664555626.446,-745.117,-74.707,-29.297,-124.023,0
1664555626.450,-784.180,-11.719,-34.180,-173.828,0
1664555626.454,-762.207,-16.113,-30.762,-151.855,0
1664555626.458,-712.402,-52.734,-27.344,-91.309,0
1664555626.462,-710.449,-46.387,-30.273,-93.750,0
1664555626.464,-740.723,-30.273,-32.715,-132.324,0
1664555626.468,-738.281,-44.434,-39.062,-126.465,0
1664555626.472,-678.223,-63.477,-39.062,-61.035,0
1664555626.476,-645.996,-40.039,-33.691,-42.969,0
1664555626.480,-648.926,-38.574,-32.227,-73.242,0
1664555626.484,-654.297,-64.941,-29.297,-84.961,0
1664555626.488,-593.262,-96.191,-26.367,-13.184,0
1664555626.491,-553.223,-54.199,-21.973,14.160,0
1664555626.495,-553.711,0.000,-19.043,-21.973,0
1664555626.499,-567.383,-54.688,-27.832,-38.574,0
1664555626.503,-533.203,-53.711,-29.297,7.812,0
1664555626.507,-484.375,-19.531,-24.902,56.152,0
1664555626.509,-473.633,-22.461,-24.902,59.570,0
1664555626.513,-495.605,-57.129,-16.113,46.875,0
1664555626.517,-490.723,-54.688,-17.090,68.359,0
1664555626.521,-456.543,-15.625,-15.137,113.281,0
1664555626.525,-457.520,-19.531,-12.207,118.164,0
1664555626.529,-501.953,-74.707,-18.555,102.051,0
1664555626.533,-537.109,-93.262,-25.879,100.098,0
1664555626.536,-526.855,-14.160,-28.320,117.676,0
1664555626.540,-533.203,6.836,-24.414,131.836,0
1664555626.544,-565.918,-36.621,-22.461,114.746,0
1664555626.548,-626.465,-33.691,-24.902,76.660,0
1664555626.552,-622.559,-7.324,-21.484,110.840,0
1664555626.568,-623.535,-12.695,-17.090,146.484,0
1664555626.572,-680.176,-28.809,-15.137,135.742,0
1664555626.576,-758.789,-41.992,-15.137,98.633,0
1664555626.580,-771.484,-22.461,-16.113,117.676,0
1664555626.584,-750.977,-7.812,-13.672,161.133,0
1664555626.588,-787.109,-39.551,-9.277,162.598,0
1664555626.592,-872.070,-27.832,-17.578,110.840,0
1664555626.595,-901.855,7.812,-30.273,96.680,0
1664555626.599,-877.441,-13.672,-26.855,147.461,0
1664555626.603,-899.414,-59.570,-19.531,168.945,0
1664555626.607,-958.496,-25.391,-20.996,129.395,0
1664555626.611,-1000.000,9.766,-20.020,103.516,0
1664555626.613,-999.512,-31.250,-13.672,151.855,0
1664555626.617,-999.512,-42.969,-14.648,170.410,0
1664555626.621,-1000.000,-14.160,-17.578,129.395,0
1664555626.625,-1000.000,-27.344,-20.508,91.797,0
1664555626.629,-1000.000,-50.781,-24.902,121.094,0
1664555626.633,-1000.000,-68.359,-22.949,147.461,0
1664555626.637,-1000.000,-44.434,-26.367,112.793,0
1664555626.640,-1000.000,-6.348,-27.832,58.105,0
1664555626.644,-1000.000,-54.199,-20.020,95.215,0
1664555626.648,-1000.000,-81.543,-25.391,137.695,0
1664555626.652,-1000.000,4.883,-34.180,98.633,0
1664555626.656,-1000.000,-20.996,-27.832,52.246,0
1664555626.658,-1000.000,-43.945,-23.438,55.176,0
1664555626.662,-1000.000,-8.301,-25.879,90.820,0
1664555626.666,-1000.000,-28.320,-20.996,103.516,0
1664555626.670,-1000.000,-35.645,-18.066,66.895,0
1664555626.674,-1000.000,-30.762,-20.996,36.133,0
1664555626.678,-1000.000,-31.250,-20.996,81.055,0
1664555626.682,-1000.000,0.000,-20.020,89.844,0
1664555626.685,-1000.000,0.000,-21.973,51.270,0
1664555626.689,-1000.000,-80.566,-21.484,37.598,0
1664555626.693,-1000.000,-33.691,-20.508,62.500,0
1664555626.697,-1000.000,37.109,-20.996,72.754,0
1664555626.701,-1000.000,-16.602,-18.555,52.246,0
1664555626.704,-1000.000,-35.645,-27.344,5.371,0
1664555626.708,-999.512,-21.973,-34.180,17.578,0
1664555626.712,-1000.000,-15.625,-26.855,52.734,0
1664555626.716,-987.305,-15.137,-23.438,45.410,0
1664555626.720,-960.938,-25.879,-23.438,5.859,0
1664555626.724,-902.344,-32.715,-25.879,-8.301,0
1664555626.728,-813.477,2.441,-29.785,16.113,0
1664555626.731,-739.258,-23.926,-28.809,24.414,0
1664555626.735,-701.660,-64.453,-29.297,-0.977,0
1664555626.739,-687.500,20.996,-29.785,-59.082,0
1664555626.743,-596.680,17.090,-29.785,-32.227,0
1664555626.747,-513.184,-16.602,-24.902,-4.395,0
1664555626.749,-480.469,-0.488,-21.973,-40.527,0
1664555626.753,-470.215,2.930,-30.273,-95.215,0
1664555626.757,-399.902,-26.855,-29.785,-67.383,0
1664555626.761,-314.453,-27.344,-27.832,-30.762,0
1664555626.765,-270.508,-7.812,-29.297,-58.105,0
1664555626.769,-263.184,-14.648,-33.203,-107.422,0
1664555626.773,-213.379,-5.859,-33.203,-105.957,0
1664555626.776,-120.117,-40.527,-28.320,-48.828,0
1664555626.780,-67.383,-11.230,-25.391,-52.734,0
1664555626.784,-45.410,51.758,-24.902,-118.164,0
1664555626.788,7.324,1.465,-22.949,-113.281,0
1664555626.792,97.656,-11.230,-26.367,-68.359,0
1664555626.794,160.645,14.648,-27.344,-66.895,0
1664555626.798,190.918,15.137,-20.996,-93.262,0
1664555626.802,203.125,-14.648,-26.855,-127.930,0
1664555626.806,272.949,-23.926,-26.855,-91.797,0
1664555626.810,345.703,0.488,-19.043,-62.988,0
1664555626.814,384.277,-17.090,-20.996,-85.449,0
1664555626.818,396.973,-67.871,-25.391,-118.164,0
1664555626.821,454.102,-56.641,-33.203,-96.680,0
1664555626.825,521.484,32.227,-38.574,-88.379,0
1664555626.829,573.242,24.902,-24.414,-91.309,0
1664555626.833,594.238,-26.855,-19.043,-115.234,0
1664555626.837,631.348,-12.695,-28.320,-119.141,0
1664555626.839,716.309,9.766,-27.832,-72.266,0
1664555626.843,770.996,-6.836,-18.555,-64.453,0
1664555626.847,788.086,-43.457,-18.555,-93.750,0
1664555626.851,805.664,-30.762,-26.855,-118.652,0
1664555626.855,881.836,0.977,-29.785,-75.684,0
1664555626.859,941.895,-27.832,-27.344,-57.129,0
1664555626.863,962.402,-80.078,-27.344,-80.078,0
1664555626.866,962.402,-42.480,-23.926,-110.352,0
1664555626.870,962.402,16.602,-21.484,-87.402,0
1664555626.874,962.891,-16.602,-22.949,-47.852,0
1664555626.878,962.891,-11.719,-21.484,-64.941,0
1664555626.882,962.891,4.395,-23.438,-104.004,0
1664555626.884,962.891,4.395,-22.949,-87.891,0
1664555626.888,962.891,-18.066,-22.949,-51.758,0
1664555626.892,962.891,-32.715,-23.438,-54.688,0
1664555626.896,962.891,-18.066,-22.461,-96.680,0
1664555626.900,962.891,-18.555,-26.855,-104.004,0
1664555626.904,962.891,-68.359,-31.250,-53.223,0
1664555626.908,962.891,-64.453,-31.738,-41.016,0
1664555626.911,962.891,0.488,-32.227,-92.773,0
1664555626.915,962.891,-8.789,-30.762,-119.141,0
1664555626.919,962.891,-37.109,-25.879,-60.059,0
1664555626.923,962.891,-48.340,-16.602,-37.109,0
1664555626.927,962.891,-17.578,-18.066,-76.172,0
1664555626.944,962.891,-16.602,-26.855,-115.234,0
1664555626.948,962.891,-52.734,-31.250,-88.867,0
1664555626.952,962.891,-59.570,-26.367,-52.734,0
1664555626.956,962.402,-29.785,-22.949,-76.660,0
1664555626.960,962.891,-17.578,-25.879,-125.977,0
1664555626.964,962.891,-55.664,-33.691,-104.492,0
1664555626.968,962.891,-35.645,-41.016,-74.707,0
1664555626.971,962.891,-5.371,-34.668,-92.285,0
1664555626.975,962.891,-39.551,-33.203,-126.953,0
1664555626.979,962.891,-79.102,-40.527,-128.418,0
1664555626.983,962.891,-36.133,-38.086,-98.145,0
1664555626.987,962.891,-4.883,-35.645,-96.680,0
1664555626.989,962.891,-46.387,-35.645,-118.164,0
1664555626.993,962.891,-57.129,-36.133,-140.625,0
1664555626.997,962.891,-13.184,-36.621,-109.863,0
1664555627.001,962.891,-2.930,-28.320,-81.055,0
1664555627.005,962.891,-41.992,-25.391,-102.051,0
1664555627.009,962.891,-77.637,-29.785,-131.836,0
1664555627.013,962.891,-45.410,-23.926,-104.492,0
1664555627.016,962.891,-0.488,-21.973,-94.727,0
1664555627.020,962.891,-56.152,-25.879,-107.910,0
1664555627.024,962.891,-81.055,-20.020,-139.648,0
1664555627.028,962.891,11.230,-20.020,-147.949,0
1664555627.032,962.891,10.742,-21.484,-108.887,0
1664555627.034,962.891,-29.785,-20.508,-112.793,0
1664555627.038,962.891,-20.996,-24.902,-159.668,0
1664555627.042,962.891,-30.273,-22.461,-173.340,0
1664555627.046,962.891,-46.387,-20.996,-137.207,0
1664555627.050,962.891,-33.203,-23.438,-137.207,0
1664555627.054,962.891,-36.133,-27.344,-172.852,0
1664555627.058,962.891,-21.973,-29.785,-211.426,0
1664555627.061,962.891,-2.930,-20.508,-173.340,0
1664555627.065,960.938,-64.453,-23.438,-120.117,0
1664555627.069,966.797,-42.969,-24.414,-145.508,0
1664555627.073,939.941,18.555,-17.578,-206.543,0
1664555627.077,896.973,-21.484,-23.438,-180.664,0
1664555627.080,876.465,-36.621,-28.809,-135.254,0
1664555627.084,831.543,-5.859,-27.832,-152.832,0
1664555627.088,760.254,-13.672,-22.949,-194.336,0
1664555627.092,731.445,-36.621,-16.602,-173.340,0
1664555627.096,726.074,-29.785,-14.160,-123.047,0
1664555627.100,687.988,-25.391,-7.324,-120.117,0
1664555627.104,613.770,-34.668,-11.719,-157.715,0
1664555627.107,544.922,-62.988,-23.926,-165.039,0
1664555627.111,529.297,-52.246,-23.438,-110.840,0
1664555627.115,479.492,15.625,-19.043,-115.234,0
1664555627.119,411.621,6.348,-19.043,-146.484,0
1664555627.123,332.031,-35.156,-21.484,-170.410,0
1664555627.124,288.086,-19.531,-11.719,-136.719,0
1664555627.128,267.578,-2.441,-8.789,-95.703,0
1664555627.132,225.098,-43.945,-18.555,-102.539,0
1664555627.136,144.043,-37.598,-27.832,-154.785,0
1664555627.140,111.328,2.441,-35.645,-142.578,0
1664555627.144,116.699,-11.719,-37.598,-92.773,0
1664555627.148,78.125,-10.742,-24.902,-101.074,0
1664555627.151,16.602,-64.941,-19.531,-116.211,0
1664555627.155,-26.855,-34.668,-25.391,-124.512,0
1664555627.159,-44.434,51.758,-26.855,-115.234,0
1664555627.163,-61.035,-1.465,-23.926,-88.867,0
1664555627.167,-114.258,-39.062,-15.625,-104.492,0
1664555627.170,-176.758,0.977,-13.184,-137.207,0
1664555627.174,-177.246,20.020,-13.184,-104.004,0
1664555627.178,-193.359,-27.832,-19.531,-69.336,0
1664555627.182,-239.258,-33.203,-20.020,-90.332,0
1664555627.186,-299.805,-18.555,-12.695,-125.977,0
1664555627.190,-314.453,-33.203,-12.207,-85.449,0
1664555627.194,-322.754,-56.152,-14.160,-44.922,0
1664555627.197,-356.934,-56.641,-13.184,-52.734,0
1664555627.201,-418.945,19.531,-11.719,-105.469,0
1664555627.205,-439.941,22.949,-6.836,-90.820,0
1664555627.209,-420.898,-20.020,0.000,-36.621,0
1664555627.213,-443.848,-4.883,-1.465,-40.527,0
1664555627.230,-498.535,16.602,-1.953,-84.473,0
1664555627.234,-507.812,-3.418,2.441,-80.566,0
1664555627.238,-479.004,-36.133,-4.883,-23.926,0
1664555627.242,-476.074,-4.883,-5.371,-19.531,0
1664555627.246,-498.047,0.488,-7.324,-58.105,0
1664555627.250,-525.879,-29.785,-6.348,-74.219,0
1664555627.254,-500.488,-66.895,0.977,-5.371,0
1664555627.257,-475.586,-28.809,0.000,12.695,0
1664555627.261,-484.863,43.945,-5.371,-38.086,0
1664555627.265,-508.789,-3.418,-11.230,-69.336,0
1664555627.269,-473.633,-19.043,-9.766,-35.645,0
1664555627.273,-441.406,5.859,-8.789,1.953,0
1664555627.259,-437.988,-6.348,-13.672,-11.719,0
1664555627.263,-455.566,-29.297,-17.090,-51.758,0
1664555627.267,-437.012,-10.254,-8.789,-44.434,0
1664555627.271,-379.883,20.996,-2.930,-0.977,0
1664555627.275,-351.562,7.324,-2.930,-2.441,0
1664555627.279,-359.863,-48.340,-3.906,-31.250,0
1664555627.283,-364.746,-41.016,-4.395,-38.574,0
1664555627.286,-320.801,21.484,-6.836,-7.812,0
1664555627.290,-296.387,24.902,-1.953,6.348,0
1664555627.294,-301.758,-46.387,2.930,-0.488,0
1664555627.298,-316.895,-58.105,-8.789,-24.902,0
1664555627.302,-295.898,25.391,-10.742,-18.066,0
1664555627.320,-256.348,18.555,-4.395,7.812,0
1664555627.324,-247.559,-16.113,-8.301,0.488,0
1664555627.328,-273.438,-21.484,-3.418,-34.180,0
1664555627.332,-249.023,4.395,-3.906,-22.949,0
1664555627.336,-210.938,16.113,-14.648,5.859,0
1664555627.340,-206.543,-13.184,-7.324,19.043,0
1664555627.344,-232.910,-3.906,-0.977,-12.695,0
1664555627.347,-230.957,29.297,-3.418,-25.879,0
1664555627.351,-175.781,4.395,0.000,15.137,0
1664555627.355,-146.973,-32.715,-8.301,29.785,0
1664555627.359,-168.457,12.695,-12.207,-11.719,0
1664555627.363,-184.570,31.738,-12.695,-47.363,0
1664555627.364,-144.043,-16.602,-9.766,-5.859,0
1664555627.368,-118.652,-8.789,-7.324,9.277,0
1664555627.372,-139.648,23.438,-13.672,-35.645,0
1664555627.376,-169.922,4.395,-12.207,-55.664,0
1664555627.380,-117.188,-23.438,-7.324,-6.348,0
1664555627.384,-85.449,-39.062,-5.371,23.926,0
1664555627.388,-124.512,-42.480,-5.371,-3.418,0
1664555627.391,-142.090,-11.719,-9.277,-51.758,0
1664555627.395,-83.496,-30.762,-12.207,-20.020,0
1664555627.399,-55.176,-50.781,-17.090,22.461,0
1664555627.403,-76.660,36.133,-15.625,-5.859,0
1664555627.407,-102.051,15.137,-10.254,-44.922,0
1664555627.409,-99.121,-22.949,-11.230,-45.898,0
1664555627.413,-60.059,-12.207,-16.113,-1.953,0
1664555627.417,-52.734,-24.902,-20.996,-1.953,0
1664555627.421,-84.473,-32.715,-16.602,-41.016,0
1664555627.425,-77.148,-18.555,-14.648,-56.152,0
1664555627.429,-43.945,-21.973,-12.207,-6.836,0
1664555627.433,-16.602,-6.348,-11.230,-4.395,0
1664555627.436,11.230,14.160,-20.996,-51.758,0
1664555627.440,-47.363,-60.059,-17.578,-43.457,0
1664555627.444,-10.742,-23.926,-13.672,-8.301,0
1664555627.448,75.195,45.410,-19.043,0.000,0
1664555627.452,55.176,-7.324,-6.348,3.418,0
1664555627.455,42.969,-21.484,-10.254,-26.367,0
1664555627.459,52.734,2.930,-22.949,-25.879,0
1664555627.463,68.359,7.812,-23.926,12.207,0
1664555627.467,69.824,-27.344,-19.043,23.926,0
1664555627.471,45.898,-32.227,-24.414,-29.785,0
1664555627.475,8.301,-25.391,-33.203,-74.219,0
1664555627.479,75.195,-19.531,-14.160,-21.484,0
1664555627.482,76.172,-46.387,-13.184,-11.230,0
1664555627.486,-17.578,-33.203,-53.711,-89.844,0
1664555627.490,-30.762,-37.598,-28.809,-74.219,0
1664555627.494,157.715,-15.137,4.395,23.438,0
1664555627.498,256.836,13.184,-24.902,48.340,0
1664555627.500,159.668,-4.883,-18.555,24.414,0
1664555627.504,-5.859,-16.113,-5.371,-65.430,0
1664555627.508,29.297,14.160,-45.898,-45.410,0
1664555627.512,166.016,10.742,-22.461,-18.555,0
1664555627.516,100.098,-9.766,-33.691,-89.355,0
1664555627.520,129.883,-17.578,-41.992,-22.461,0
1664555627.524,248.047,-59.570,-0.488,43.457,0
1664555627.527,208.984,-27.344,-38.086,5.859,0
1664555627.531,156.738,5.371,-27.344,-16.113,0
1664555627.535,129.883,16.113,-19.531,-62.012,0
1664555627.539,20.996,-64.941,-45.898,-14.648,0
1664555627.543,145.508,-75.195,3.418,-73.730,0
1664555627.559,378.906,27.344,-13.672,-22.461,0
1664555627.563,213.867,67.383,-12.207,101.074,0
1664555627.567,18.555,-21.973,-43.457,-146.484,0
1664555627.571,179.199,-62.988,-59.570,29.297,0
1664555627.575,367.188,-39.551,24.902,343.750,0
1664555627.579,417.480,-34.180,1.953,188.965,0
1664555627.583,268.555,-91.309,-35.645,73.730,0
1664555627.586,210.449,-125.488,16.602,78.613,0
1664555627.590,346.191,45.898,2.930,-12.207,0
1664555627.594,420.898,-0.488,14.648,17.090,0
1664555627.598,506.348,-93.750,62.500,126.953,0
1664555627.602,230.469,105.957,-55.176,-129.883,0
1664555627.590,274.902,41.992,-30.762,-97.656,0
1664555627.594,553.711,-30.762,9.277,226.562,0
1664555627.598,425.781,-43.457,-33.691,136.719,0
1664555627.602,476.074,-130.859,29.785,50.293,0
1664555627.606,687.988,-55.664,3.418,79.590,0
1664555627.610,728.516,5.371,-14.160,238.281,0
1664555627.614,492.188,59.570,-53.711,80.566,0
1664555627.617,521.973,-21.484,-33.691,89.844,0
1664555627.621,713.379,-58.105,-16.113,221.680,0
1664555627.625,581.055,-0.977,-37.598,67.871,0
1664555627.629,579.590,-79.102,14.160,15.137,0
1664555627.633,565.918,-82.520,-43.945,133.789,0
1664555627.634,410.645,-28.320,-7.812,125.977,0
1664555627.638,607.910,-8.301,31.738,101.562,0
1664555627.642,728.516,-44.922,-28.809,31.250,0
1664555627.646,594.238,-101.562,-74.219,53.711,0
1664555627.650,592.773,12.207,-59.082,199.219,0
1664555627.654,601.074,-52.246,-41.016,231.445,0
1664555627.658,601.074,-122.070,-43.945,181.152,0
1664555627.661,578.613,-24.414,-45.410,119.629,0
1664555627.665,492.676,-4.395,-32.227,61.035,0
1664555627.669,580.078,-60.059,-14.160,63.477,0
1664555627.673,600.586,-36.621,-25.391,60.547,0
1664555627.677,536.621,14.160,-32.227,117.188,0
1664555627.695,532.715,-69.824,-15.625,104.004,0
1664555627.699,570.312,-71.289,-60.547,32.227,0
1664555627.703,572.754,5.859,-80.078,26.855,0
1664555627.707,582.031,-32.715,-38.574,-3.906,0
1664555627.711,487.793,-80.078,-19.531,-9.766,0
1664555627.715,444.336,-87.402,-32.227,11.230,0
1664555627.719,553.711,-71.777,-47.363,155.762,0
1664555627.722,457.520,-12.207,-50.293,100.098,0
1664555627.726,459.473,-51.270,-65.918,16.602,0
1664555627.730,461.426,-123.047,-30.762,44.922,0
1664555627.734,382.812,-56.641,-5.859,111.816,0
1664555627.738,393.066,-30.273,-20.020,116.211,0
1664555627.740,338.867,-60.059,-45.898,12.207,0
1664555627.744,344.727,-67.383,-47.852,57.129,0
1664555627.748,315.918,-16.113,-34.180,58.594,0
1664555627.752,268.066,-23.438,-41.992,2.930,0
1664555627.756,256.348,-64.453,-49.316,-5.371,0
1664555627.760,161.621,-75.195,-37.109,0.000,0
1664555627.764,145.508,-60.547,-21.973,47.852,0
1664555627.767,133.789,-15.137,-25.879,49.805,0
1664555627.771,68.848,-78.613,-23.438,44.922,0
1664555627.775,-2.930,-105.469,-9.766,4.395,0
1664555627.779,-43.945,-2.441,-22.461,-35.156,0
1664555627.783,-54.199,-6.348,-31.250,18.555,0
1664555627.785,-99.121,-51.270,-20.996,31.250,0
1664555627.789,-170.898,-34.180,-32.227,-39.062,0
1664555627.793,-204.590,-38.574,-29.297,-52.246,0
1664555627.797,-207.031,-48.828,-19.043,-10.742,0
1664555627.801,-227.051,-38.086,-20.508,-3.418,0
1664555627.805,-268.555,-49.805,-23.438,-33.691,0
1664555627.809,-326.172,-38.574,-25.391,-77.637,0
1664555627.812,-327.637,-17.578,-24.414,-53.711,0
1664555627.816,-303.711,-79.590,-20.508,2.930,0
1664555627.820,-339.844,-56.641,-16.602,-38.574,0
1664555627.824,-397.949,-2.930,-16.113,-104.492,0
1664555627.828,-373.047,-43.457,-18.555,-57.129,0
1664555627.829,-364.746,-33.203,-14.160,-25.879,0
1664555627.833,-369.629,-15.625,-18.555,-58.594,0
1664555627.837,-401.855,-21.973,-27.832,-116.211,0
1664555627.841,-411.133,-43.945,-23.438,-114.746,0
1664555627.845,-363.770,-40.039,-16.113,-50.781,0
1664555627.849,-351.562,-36.133,-7.324,-44.922,0
1664555627.853,-379.883,-48.340,-7.812,-110.352,0
1664555627.856,-386.230,-65.918,-10.742,-122.559,0
1664555627.860,-339.844,-71.289,-5.371,-50.781,0
1664555627.864,-325.684,8.301,-3.418,-56.152,0
1664555627.868,-346.680,18.066,-2.930,-104.004,0
1664555627.872,-369.629,-30.762,-4.395,-125.488,0
1664555627.874,-343.262,-21.484,-8.301,-90.820,0
1664555627.878,-315.430,-14.160,-5.371,-73.730,0
1664555627.882,-310.059,-43.457,-6.348,-95.215,0
1664555627.886,-331.055,-37.109,-12.695,-141.113,0
1664555627.890,-314.941,-28.809,-10.742,-125.977,0
1664555627.894,-275.391,-55.176,-10.742,-86.426,0
1664555627.898,-265.137,-36.621,-18.066,-102.539,0
1664555627.901,-294.922,-73.730,-20.508,-140.137,0
1664555627.905,-312.012,-60.059,-15.137,-149.414,0
1664555627.909,-278.320,8.789,-11.719,-124.512,0
1664555627.913,-259.277,-20.020,-13.672,-117.676,0
1664555627.917,-269.531,-36.621,-19.043,-144.043,0
1664555627.919,-261.230,-20.508,-14.160,-151.855,0
1664555627.923,-234.375,-9.766,-14.648,-105.957,0
1664555627.927,-225.586,-37.598,-21.484,-94.238,0
1664555627.931,-229.980,-68.359,-16.602,-115.234,0
1664555627.935,-250.488,-50.293,-13.184,-145.508,0
1664555627.939,-221.191,-32.227,-14.648,-127.441,0
1664555627.943,-189.941,-52.734,-18.066,-84.473,0
1664555627.946,-206.543,-65.430,-21.484,-75.684,0
1664555627.950,-254.883,-12.207,-22.949,-140.625,0
1664555627.954,-247.559,-0.488,-28.809,-150.391,0
1664555627.958,-204.102,-28.809,-34.668,-101.074,0
1664555627.962,-203.125,-29.297,-30.762,-100.098,0
1664555627.964,-240.234,-23.438,-26.367,-140.137,0
1664555627.968,-246.094,-35.645,-23.438,-135.742,0
1664555627.972,-213.867,-51.270,-24.414,-90.820,0
1664555627.976,-217.773,-33.203,-20.996,-80.566,0
1664555627.980,-223.633,-28.809,-13.184,-97.168,0
1664555627.984,-245.117,-48.828,-14.648,-116.699,0
1664555627.988,-218.262,-89.844,-17.090,-56.152,0
1664555627.991,-208.984,-66.895,-16.602,-32.227,0
1664555627.995,-232.910,15.137,-14.648,-76.660,0
1664555627.999,-247.070,-24.414,-13.184,-105.957,0
1664555628.003,-222.168,-43.457,-14.160,-85.449,0
1664555628.007,-194.336,-19.043,-14.160,-55.664,0
1664555628.024,-209.473,-19.043,-15.625,-71.777,0
1664555628.028,-233.887,-52.246,-19.043,-95.703,0
1664555628.032,-226.074,-62.988,-20.020,-88.867,0
1664555628.036,-191.406,-23.926,-23.438,-57.617,0
1664555628.040,-168.945,-17.578,-20.996,-42.480,0
1664555628.044,-187.988,-75.684,-19.531,-67.871,0
1664555628.048,-207.031,-88.379,-25.879,-78.613,0
1664555628.051,-170.898,-11.719,-20.508,-42.480,0
1664555628.055,-137.207,-21.973,-14.160,-29.297,0
1664555628.059,-151.855,-39.062,-27.832,-64.941,0
1664555628.063,-180.176,-17.090,-31.738,-98.145,0
1664555628.067,-139.648,-11.230,-16.113,-62.500,0
1664555628.070,-108.398,-14.160,-10.742,-25.879,0
1664555628.074,-123.535,-35.156,-12.695,-56.152,0
1664555628.078,-148.438,-48.828,-16.113,-87.402,0
1664555628.082,-122.559,-24.902,-10.254,-47.363,0
1664555628.086,-98.633,-19.043,-9.277,-28.320,0
1664555628.090,-96.680,-57.129,-6.348,-32.715,0
1664555628.094,-127.930,-41.992,-16.113,-77.637,0
1664555628.097,-134.277,-10.254,-21.973,-96.680,0
1664555628.101,-100.098,-20.508,-16.113,-59.082,0
1664555628.105,-87.402,-90.820,-19.531,-35.156,0
1664555628.109,-107.910,-73.730,-28.320,-78.613,0
1664555628.113,-120.605,0.488,-35.645,-121.582,0
1664555628.115,-85.449,-24.902,-25.879,-67.871,0
1664555628.119,-83.984,-39.062,-18.066,-48.828,0
1664555628.123,-106.445,-21.484,-20.996,-87.891,0
1664555628.127,-122.070,-19.043,-27.832,-123.047,0
1664555628.131,-93.750,-44.922,-25.391,-73.242,0
1664555628.135,-58.105,-74.707,-23.926,-34.668,0
1664555628.139,-74.707,-36.621,-30.762,-63.477,0
1664555628.142,-123.535,-15.625,-23.438,-108.398,0
1664555628.146,-97.168,-65.918,-23.926,-81.543,0
1664555628.150,-55.664,-70.801,-30.273,-32.227,0
1664555628.154,-78.613,6.348,-26.855,-57.129,0
1664555628.158,-113.770,-13.672,-23.926,-105.957,0
1664555628.175,-110.352,-61.523,-27.344,-116.211,0
1664555628.179,-87.402,-44.434,-32.227,-69.824,0
1664555628.183,-82.031,-41.992,-27.832,-64.453,0
1664555628.187,-103.027,-47.363,-24.902,-113.281,0
1664555628.191,-130.371,-46.387,-29.297,-128.418,0
1664555628.195,-102.539,-55.176,-26.855,-82.031,0
1664555628.199,-91.797,-31.738,-27.832,-84.473,0
1664555628.202,-128.418,-19.531,-34.180,-120.117,0
1664555628.206,-165.039,-81.543,-32.715,-152.344,0
1664555628.210,-136.719,-55.176,-28.320,-116.699,0
1664555628.214,-113.281,19.531,-33.691,-117.676,0
1664555628.218,-99.121,-13.184,-42.969,-137.207,0
1664555628.205,-147.461,-41.504,-35.645,-118.164,0
1664555628.209,-190.430,-12.695,-24.902,-129.395,0
1664555628.213,-134.277,-12.695,-20.020,-103.516,0
1664555628.217,-124.512,-49.805,-18.555,-77.637,0
1664555628.221,-137.207,-46.387,-25.879,-100.586,0
1664555628.225,-119.629,-41.992,-20.508,-95.215,0
1664555628.229,-103.027,-34.668,-11.230,-28.809,0
1664555628.232,-89.355,-51.758,-15.137,-25.391,0
1664555628.236,-104.004,-62.012,-15.625,-67.383,0
1664555628.240,-124.023,-24.902,-20.020,-89.844,0
1664555628.244,-64.453,-8.789,-33.203,-62.012,0
1664555628.248,-39.551,-77.637,-26.367,-26.367,0
1664555628.250,-61.035,-85.938,-23.438,-43.457,0
1664555628.254,-96.191,2.441,-29.297,-105.957,0
1664555628.258,-63.965,-38.086,-31.738,-80.078,0
1664555628.262,-30.762,-42.480,-32.227,-40.039,0
1664555628.266,-33.203,-26.855,-27.344,-55.664,0
1664555628.270,-52.734,-55.176,-22.461,-79.590,0
1664555628.274,-49.316,-45.898,-27.832,-81.055,0
1664555628.277,-1.465,-74.707,-28.320,-39.062,0
1664555628.281,6.348,-42.969,-31.738,-49.316,0
1664555628.285,-21.484,18.555,-24.902,-103.027,0
1664555628.289,-32.227,-27.832,-22.461,-90.820,0
1664555628.293,-3.906,-42.480,-35.156,-61.035,0
1664555628.295,22.461,-19.043,-36.133,-56.641,0
1664555628.299,17.578,-19.531,-33.203,-72.754,0
1664555628.303,-7.812,-52.246,-32.715,-109.863,0
1664555628.307,7.324,-53.223,-38.574,-93.262,0
1664555628.311,24.902,-34.668,-34.668,-63.965,0
1664555628.315,40.527,-53.711,-33.203,-62.988,0
1664555628.319,12.695,-78.613,-39.062,-109.375,0
1664555628.322,10.254,-112.305,-36.621,-87.891,0
1664555628.326,41.016,-23.438,-34.668,-70.801,0
1664555628.330,35.645,22.461,-41.016,-113.770,0
1664555628.334,2.441,-33.691,-42.969,-127.930,0
1664555628.338,-8.789,-40.039,-36.133,-115.234,0
1664555628.340,13.184,-19.043,-40.527,-88.379,0
1664555628.344,7.324,-21.484,-44.922,-93.262,0
1664555628.348,-22.461,-69.336,-44.922,-118.164,0
1664555628.352,-24.414,-55.176,-52.734,-139.648,0
1664555628.356,15.137,-28.809,-50.781,-115.234,0
1664555628.360,29.297,-52.246,-38.574,-91.797,0
1664555628.364,5.859,-94.238,-39.551,-102.539,0
1664555628.367,-24.414,-56.641,-51.270,-147.461,0
1664555628.371,-2.441,8.789,-47.852,-143.066,0
1664555628.375,25.391,-34.180,-42.480,-108.398,0
1664555628.379,20.996,-44.922,-47.363,-118.164,0
1664555628.383,-22.949,-27.344,-47.363,-145.020,0
1664555628.384,-22.461,-23.926,-38.086,-123.535,0
1664555628.388,21.484,-43.945,-41.992,-90.820,0
1664555628.392,8.789,-53.223,-46.875,-82.520,0
1664555628.396,-33.203,-28.809,-44.922,-120.117,0
1664555628.400,-35.645,-27.344,-37.598,-134.766,0
1664555628.404,-8.301,-78.125,-30.273,-74.219,0
1664555628.408,2.930,-99.609,-32.715,-49.316,0
1664555628.411,-0.488,-23.438,-36.133,-116.211,0
1664555628.415,-22.949,-6.348,-40.527,-158.203,0
1664555628.419,-7.812,-52.246,-31.250,-79.102,0
1664555628.423,19.531,-47.852,-21.973,-45.410,0
1664555628.427,14.160,-28.809,-26.367,-107.910,0
1664555628.445,-32.715,-65.918,-21.484,-131.348,0
1664555628.449,-19.043,-54.688,-32.715,-89.844,0
1664555628.453,41.992,-38.574,-42.480,-62.500,0
1664555628.457,30.273,-32.715,-35.645,-71.777,0
1664555628.461,-21.973,-35.156,-29.785,-107.910,0
1664555628.465,-9.277,-78.125,-28.809,-87.891,0
1664555628.469,13.184,-51.758,-33.203,-59.082,0
1664555628.472,9.277,-5.371,-38.574,-69.336,0
1664555628.476,-30.762,-39.551,-40.527,-95.215,0
1664555628.480,-34.668,-62.500,-35.156,-99.121,0
1664555628.484,2.930,-33.691,-30.762,-69.336,0
1664555628.488,6.348,-27.344,-32.715,-65.430,0
1664555628.489,-4.395,-48.828,-32.227,-79.590,0
1664555628.493,-27.832,-65.918,-31.738,-91.797,0
1664555628.497,-26.855,-55.176,-34.180,-71.777,0
1664555628.501,-23.926,-30.762,-37.109,-75.195,0
1664555628.505,-23.438,-48.340,-33.691,-84.961,0
1664555628.509,-48.828,-89.844,-28.809,-99.609,0
1664555628.513,-54.688,-51.270,-33.691,-96.680,0
1664555628.516,-31.250,-12.695,-41.016,-90.332,0
1664555628.520,-28.320,-71.289,-34.180,-56.152,0
1664555628.524,-74.707,-91.797,-39.551,-86.426,0
1664555628.528,-90.820,-17.090,-41.992,-119.141,0
1664555628.532,-65.918,-18.066,-31.738,-67.383,0
1664555628.534,-50.293,-73.242,-37.109,-62.988,0
1664555628.538,-80.078,-75.195,-38.574,-109.863,0
1664555628.542,-104.492,-49.316,-36.133,-113.281,0
1664555628.546,-70.801,-48.828,-29.297,-51.270,0
1664555628.550,-55.664,-51.270,-30.273,-46.387,0
1664555628.554,-77.637,-56.641,-37.109,-81.543,0
1664555628.558,-121.582,-43.945,-39.062,-123.535,0
1664555628.561,-106.934,-21.484,-41.016,-109.375,0
1664555628.565,-81.055,-94.727,-34.668,-35.645,0
1664555628.569,-85.938,-83.496,-42.480,-38.574,0
1664555628.573,-117.676,-5.371,-48.340,-119.629,0
1664555628.577,-102.539,-41.992,-41.992,-107.910,0
1664555628.594,-73.730,-48.340,-38.574,-76.660,0
1664555628.598,-84.961,-42.480,-36.133,-64.941,0
1664555628.602,-100.098,-43.945,-37.598,-93.750,0
1664555628.606,-86.914,-60.059,-44.434,-110.840,0
1664555628.610,-65.918,-71.289,-40.039,-73.242,0
1664555628.614,-69.336,-67.383,-28.809,-60.059,0
1664555628.618,-100.586,-64.941,-30.273,-83.008,0
1664555628.621,-114.258,-81.055,-37.109,-104.980,0
1664555628.625,-70.801,-82.520,-37.109,-65.430,0
1664555628.629,-53.711,-16.113,-34.668,-58.105,0
1664555628.633,-64.941,-31.250,-32.715,-74.707,0
1664555628.637,-102.051,-72.754,-31.250,-91.309,0
1664555628.625,-91.797,-41.504,-36.133,-75.684,0
1664555628.629,-60.547,-23.438,-33.203,-41.992,0
1664555628.633,-57.129,-65.430,-23.438,-50.781,0
1664555628.637,-85.938,-71.289,-35.156,-108.887,0
1664555628.641,-75.195,-41.992,-38.574,-93.262,0
1664555628.645,-21.484,-57.617,-29.785,-27.344,0
1664555628.649,-32.715,-66.895,-33.691,-38.086,0
1664555628.652,-59.570,-68.848,-34.180,-95.215,0
1664555628.656,-49.805,-49.805,-34.668,-104.492,0
1664555628.660,-24.902,-34.668,-35.156,-66.406,0
1664555628.664,-14.160,-30.273,-31.250,-55.664,0
1664555628.668,-37.598,-96.680,-24.414,-66.406,0
1664555628.684,-67.383,-78.613,-23.926,-91.797,0
1664555628.688,-33.691,5.859,-32.715,-93.262,0
1664555628.692,-5.859,-37.109,-39.551,-66.406,0
1664555628.696,-39.062,-52.246,-28.809,-73.242,0
1664555628.700,-84.961,-39.062,-31.250,-128.906,0
1664555628.704,-58.594,-54.688,-34.180,-108.887,0
1664555628.708,-20.996,-81.543,-23.926,-50.781,0
1664555628.711,-21.973,-76.660,-26.855,-64.453,0
1664555628.715,-70.312,-9.277,-28.320,-107.910,0
1664555628.719,-54.199,-2.930,-25.879,-81.055,0
1664555628.723,-16.602,-58.105,-24.414,-40.527,0
1664555628.727,-38.574,-68.848,-20.996,-51.758,0
1664555628.714,-87.402,-24.902,-18.066,-95.215,0
1664555628.718,-78.125,-22.949,-21.484,-85.938,0
1664555628.722,-18.555,-46.387,-29.297,-61.035,0
1664555628.726,-26.855,-32.715,-25.391,-53.711,0
1664555628.730,-48.340,-19.531,-22.461,-74.219,0
1664555628.734,-58.594,-62.988,-24.902,-87.891,0
1664555628.738,-37.109,-49.805,-20.996,-67.871,0
1664555628.741,-21.484,-16.602,-20.508,-66.406,0
1664555628.745,-32.227,-27.832,-22.949,-71.289,0
1664555628.749,-73.242,-43.457,-28.809,-99.609,0
1664555628.753,-43.457,-92.285,-34.668,-67.871,0
1664555628.757,-9.766,-54.199,-34.668,-35.156,0
1664555628.774,-27.832,-1.465,-31.250,-75.195,0
1664555628.778,-26.367,-53.711,-29.785,-95.703,0
1664555628.782,-35.645,-60.547,-26.855,-79.102,0
1664555628.786,-28.809,-14.648,-30.273,-53.223,0
1664555628.790,-20.020,-20.508,-31.738,-62.500,0
1664555628.794,-28.320,-85.938,-25.879,-89.355,0
1664555628.798,-60.547,-96.680,-28.320,-77.148,0
1664555628.801,-34.668,-11.719,-35.156,-67.871,0
1664555628.805,-0.977,1.953,-29.297,-61.523,0
1664555628.809,-31.738,-48.828,-23.926,-74.707,0
1664555628.813,-52.734,-51.270,-20.996,-82.031,0
1664555628.817,-28.320,-9.766,-20.996,-54.688,0
1664555628.820,-17.578,-19.043,-17.578,-45.410,0
1664555628.824,-22.949,-42.480,-13.184,-37.109,0
1664555628.828,-42.969,-51.270,-20.996,-63.477,0
1664555628.832,-22.949,-38.086,-26.367,-62.012,0
1664555628.836,-1.465,-35.156,-25.391,-30.762,0
1664555628.840,21.973,-43.457,-28.320,-34.668,0
1664555628.844,0.000,-28.320,-26.855,-93.262,0
1664555628.847,-47.852,-18.555,-18.555,-105.957,0
1664555628.851,-10.742,-23.438,-24.902,-54.688,0
1664555628.855,30.273,-87.891,-31.738,-39.062,0
1664555628.859,6.836,-73.730,-33.203,-73.730,0
1664555628.863,-25.391,-7.324,-28.320,-91.309,0
1664555628.864,11.719,-39.551,-22.461,-46.875,0
1664555628.868,41.504,-45.898,-23.926,-40.527,0
1664555628.872,9.766,-27.344,-25.391,-62.012,0
1664555628.876,-18.066,-28.809,-33.203,-98.145,0
1664555628.880,26.367,-53.711,-38.086,-63.477,0
1664555628.884,53.223,-70.312,-33.203,-2.441,0
1664555628.888,46.387,-45.898,-33.203,-22.949,0
1664555628.891,20.020,-20.508,-40.039,-100.586,0
1664555628.895,26.367,-45.898,-34.180,-76.172,0
1664555628.899,54.688,-65.430,-28.809,-3.906,0
1664555628.903,59.570,0.000,-29.785,-23.438,0
1664555628.907,22.461,-14.160,-30.273,-75.195,0
1664555628.940,10.254,-44.922,-33.203,-79.590,0
1664555628.944,44.922,-28.320,-35.156,-36.133,0
1664555628.948,57.617,-34.180,-23.926,-11.230,0
1664555628.952,46.387,-48.340,-19.043,-38.574,0
1664555628.956,29.785,-34.668,-24.902,-68.848,0
1664555628.960,48.340,-48.340,-26.855,-30.273,0
1664555628.964,43.945,-32.715,-30.273,-16.113,0
1664555628.967,22.949,-25.391,-30.762,-43.945,0
1664555628.971,10.254,-107.422,-32.715,-55.664,0
1664555628.975,19.043,-82.031,-29.785,-19.531,0
1664555628.979,22.461,-0.488,-16.602,-4.883,0
1664555628.983,31.250,-41.016,-15.625,-6.348,0
1664555628.955,0.000,-57.129,-29.297,-45.898,0
1664555628.959,-11.719,-23.438,-32.227,-60.059,0
1664555628.963,16.113,-11.230,-27.832,-25.879,0
1664555628.967,13.184,-38.086,-32.715,-17.090,0
1664555628.971,-17.090,-59.082,-36.621,-56.641,0
1664555628.975,-26.367,-47.852,-35.645,-73.730,0
1664555628.979,2.930,-9.766,-39.062,-46.387,0
1664555628.982,3.418,-32.227,-38.086,-30.762,0
1664555628.986,-20.020,-71.777,-34.668,-41.016,0
1664555628.990,-52.734,-5.859,-33.203,-78.125,0
1664555628.994,-32.715,-18.066,-33.203,-47.363,0
1664555628.998,-7.812,-63.965,-33.691,-24.414,0
1664555628.999,-41.504,-45.898,-25.391,-49.316,0
1664555629.003,-87.402,-27.344,-22.949,-82.031,0
1664555629.007,-67.383,-61.523,-21.484,-46.875,0
1664555629.011,-44.434,-67.871,-19.531,-13.672,0
1664555629.015,-43.457,-44.434,-20.996,-34.668,0
1664555629.019,-81.055,-70.312,-20.508,-69.824,0
1664555629.023,-94.727,-53.711,-23.926,-69.336,0
1664555629.026,-62.988,-89.355,-23.926,-17.090,0
1664555629.030,-70.801,-75.195,-20.020,-17.578,0
1664555629.034,-101.074,-3.418,-22.949,-83.008,0
1664555629.038,-109.375,-44.434,-28.809,-95.215,0
1664555629.042,-83.984,-46.875,-27.832,-50.293,0
1664555629.044,-64.941,-35.645,-27.832,-32.715,0
1664555629.048,-83.496,-55.664,-32.227,-64.941,0
1664555629.052,-107.422,-59.570,-31.738,-102.051,0
1664555629.056,-81.543,-52.734,-31.250,-65.430,0
1664555629.060,-63.965,-35.156,-27.832,-34.180,0
1664555629.064,-72.266,-54.199,-19.043,-39.551,0
1664555629.068,-112.305,-85.938,-21.484,-73.242,0
1664555629.071,-106.445,-73.242,-29.297,-58.594,0
1664555629.075,-80.566,-1.465,-29.785,-37.598,0
1664555629.079,-85.938,-2.930,-26.855,-44.922,0
1664555629.083,-125.488,-51.758,-29.297,-83.984,0
1664555629.087,-127.441,-39.062,-33.691,-93.262,0
1664555629.089,-87.402,-11.230,-26.367,-52.246,0
1664555629.093,-88.379,-25.879,-26.367,-52.246,0
1664555629.097,-112.305,-59.082,-30.273,-88.379,0
1664555629.101,-126.953,-48.340,-27.832,-100.586,0
1664555629.105,-105.469,-20.020,-24.414,-61.035,0
1664555629.109,-97.168,-26.855,-29.297,-46.387,0
1664555629.113,-111.328,-87.402,-35.156,-64.453,0
1664555629.116,-150.879,-66.895,-35.156,-98.145,0
1664555629.120,-140.625,17.090,-37.598,-86.914,0
1664555629.124,-105.957,-12.695,-33.203,-52.246,0
1664555629.128,-117.676,-28.809,-27.344,-70.801,0
1664555629.132,-162.109,-12.695,-29.785,-114.258,0
1664555629.133,-154.785,-6.836,-29.785,-100.586,0
1664555629.137,-120.605,-26.367,-28.320,-76.172,0
1664555629.141,-124.023,-44.922,-33.203,-92.285,0
1664555629.145,-154.297,-23.926,-33.691,-134.766,0
1664555629.149,-147.949,-33.203,-25.879,-131.348,0
1664555629.153,-104.492,-72.266,-27.344,-80.566,0
1664555629.157,-86.914,-89.355,-32.715,-66.406,0
1664555629.160,-115.723,-28.809,-33.203,-116.211,0
1664555629.164,-140.625,5.371,-29.785,-145.508,0
1664555629.168,-98.633,-42.969,-24.414,-88.867,0
1664555629.172,-67.871,-48.340,-21.484,-61.523,0
1664555629.176,-73.730,-13.672,-25.391,-94.238,0
1664555629.179,-101.074,-27.832,-32.227,-126.465,0
1664555629.183,-69.824,-54.688,-35.156,-83.496,0
1664555629.187,-35.156,-52.734,-35.156,-59.570,0
1664555629.191,-32.715,-19.531,-36.133,-94.238,0
1664555629.195,-53.223,-16.113,-39.551,-132.324,0
1664555629.199,-41.016,-64.453,-41.504,-106.934,0
1664555629.203,-0.977,-24.902,-39.062,-71.289,0
1664555629.206,3.418,8.789,-42.480,-89.355,0
1664555629.210,-32.227,-37.598,-42.480,-131.348,0
1664555629.214,-45.410,-40.527,-38.086,-137.695,0
1664555629.218,-11.719,-8.789,-40.039,-90.820,0
1664555629.222,-2.441,-3.418,-32.227,-76.660,0
1664555629.239,-33.691,-39.551,-30.273,-102.051,0
1664555629.243,-61.523,-50.781,-35.156,-127.441,0
1664555629.247,-25.879,-17.090,-35.645,-101.074,0
1664555629.251,-8.301,-11.230,-41.504,-82.031,0
1664555629.255,-28.320,-54.688,-45.410,-93.262,0
1664555629.259,-51.758,-82.520,-46.387,-121.582,0
1664555629.263,-30.273,-34.180,-41.992,-104.492,0
1664555629.266,-5.371,2.441,-36.621,-75.684,0
1664555629.270,-8.789,-47.363,-40.039,-79.590,0
1664555629.274,-48.828,-79.102,-44.434,-116.699,0
1664555629.278,-49.316,-29.297,-42.969,-122.070,0
1664555629.282,-9.277,6.836,-37.598,-85.449,0
1664555629.284,8.789,-46.875,-36.621,-71.777,0
1664555629.288,-18.555,-61.035,-38.574,-108.398,0
1664555629.292,-48.340,-19.043,-36.621,-125.977,0
1664555629.296,-13.184,-20.508,-35.156,-76.172,0
1664555629.300,13.672,-18.555,-36.133,-66.895,0
1664555629.304,0.977,-22.949,-35.645,-99.609,0
1664555629.308,-26.855,-14.160,-37.598,-129.883,0
1664555629.311,-0.488,1.465,-41.016,-102.539,0
1664555629.315,32.715,-62.012,-33.691,-49.805,0
1664555629.319,24.414,-41.016,-30.762,-60.547,0
1664555629.323,-12.695,13.184,-28.809,-129.395,0
1664555629.327,6.836,-32.227,-23.438,-108.398,0
1664555629.329,40.039,-33.203,-28.809,-72.266,0
1664555629.333,25.391,-2.930,-34.668,-93.750,0
1664555629.337,-0.977,0.000,-32.715,-125.977,0
1664555629.341,2.930,-33.691,-32.715,-115.234,0
1664555629.345,34.180,-48.340,-31.250,-80.566,0
1664555629.349,45.410,-36.621,-27.832,-73.242,0
1664555629.353,17.090,-10.742,-34.180,-115.723,0
1664555629.356,-2.441,-31.250,-36.621,-132.324,0
1664555629.360,35.156,-58.105,-37.109,-80.566,0
1664555629.364,54.688,13.184,-40.039,-73.730,0
1664555629.368,39.551,22.461,-39.551,-103.516,0
1664555629.372,10.254,-23.438,-39.551,-130.859,0
1664555629.374,19.043,-11.230,-36.133,-103.516,0
1664555629.378,38.086,5.859,-29.297,-73.730,0
1664555629.382,37.598,-31.738,-27.344,-79.590,0
1664555629.386,-4.883,-41.016,-29.785,-120.117,0
1664555629.390,-1.465,-10.254,-41.992,-110.352,0
1664555629.394,46.387,-15.137,-42.969,-56.152,0
1664555629.398,43.945,-23.438,-29.297,-52.246,0
1664555629.401,1.953,-72.754,-21.484,-89.844,0
1664555629.405,-14.648,-52.734,-24.902,-109.375,0
1664555629.409,20.508,16.602,-26.367,-68.848,0
1664555629.413,35.156,-28.320,-18.066,-48.828,0
1664555629.417,6.348,-52.734,-10.742,-91.797,0
1664555629.419,-11.719,-28.320,-15.625,-105.469,0
1664555629.423,17.090,-9.277,-13.184,-67.383,0
1664555629.427,39.062,-25.879,-10.742,-45.898,0
1664555629.431,24.902,-38.086,-18.066,-63.477,0
1664555629.435,-20.020,-30.762,-18.066,-107.422,0
1664555629.439,3.418,-37.598,-19.043,-77.148,0
1664555629.443,21.973,-70.312,-20.996,-44.434,0
1664555629.446,0.000,-80.078,-21.484,-59.082,0
1664555629.450,-41.504,-16.602,-26.855,-116.211,0
1664555629.454,-22.461,2.930,-25.391,-105.957,0
1664555629.458,4.883,-26.367,-26.855,-53.223,0
1664555629.462,-12.207,-42.480,-26.367,-59.570,0
1664555629.464,-34.668,-19.043,-19.043,-93.262,0
1664555629.468,-34.668,-27.344,-21.484,-105.957,0
1664555629.472,-1.953,-65.430,-28.320,-60.547,0
1664555629.476,2.930,-45.898,-34.180,-57.617,0
1664555629.480,-31.250,-32.715,-34.180,-100.098,0
1664555629.484,-61.523,-53.711,-29.297,-109.863,0
1664555629.488,-21.484,-88.379,-27.344,-58.105,0
1664555629.491,-25.879,-59.570,-32.715,-55.176,0
1664555629.495,-62.500,15.137,-25.879,-86.914,0
1664555629.499,-59.570,-20.020,-22.949,-103.516,0
1664555629.503,-46.875,-37.598,-28.320,-89.844,0
1664555629.507,-59.082,-16.602,-31.250,-66.406,0
1664555629.509,-35.645,-12.207,-29.297,-66.406,0
1664555629.513,-48.340,-49.805,-22.461,-78.125,0
1664555629.517,-55.664,-52.246,-24.414,-67.383,0
1664555629.521,-21.484,-17.090,-28.809,-38.574,0
1664555629.525,-0.977,-21.973,-21.973,-32.715,0
1664555629.529,-58.594,-64.941,-18.555,-77.148,0
1664555629.533,-86.914,-78.613,-24.414,-95.215,0
1664555629.536,-38.574,-2.441,-24.414,-62.500,0
1664555629.540,-33.203,7.324,-12.695,-57.617,0
1664555629.544,-57.129,-46.387,-11.230,-89.844,0
1664555629.548,-91.797,-44.922,-18.066,-114.258,0
1664555629.552,-54.688,-11.719,-14.648,-67.383,0
1664555629.569,-13.672,-18.066,-16.602,-48.340,0
1664555629.573,-50.293,-35.156,-20.020,-68.359,0
1664555629.577,-101.562,-46.875,-25.391,-101.074,0
1664555629.581,-110.840,-43.457,-32.715,-125.488,0
1664555629.585,-127.441,-32.715,-7.812,-17.578,0
1664555629.589,-85.449,-49.805,-20.996,-51.758,0
1664555629.593,-32.227,-53.711,-48.340,-150.879,0
1664555629.596,-75.195,-10.742,-4.395,-16.113,0
1664555629.600,-77.148,-22.949,-21.484,-22.949,0
1664555629.604,-30.273,-68.848,-24.902,-104.492,0
1664555629.608,-57.617,3.418,-27.344,-150.391,0
1664555629.612,-97.656,0.488,-49.316,-108.887,0
1664555629.615,-9.277,-35.156,-32.715,20.508,0
1664555629.619,11.719,-66.895,-11.719,0.488,0
1664555629.623,58.105,-14.648,-6.836,-29.297,0
1664555629.627,-83.496,22.461,-63.477,-143.066,0
1664555629.631,-148.438,-41.504,-59.570,-119.141,0
1664555629.635,69.824,-48.828,20.508,82.520,0
1664555629.639,80.566,-56.641,10.742,-8.789,0
1664555629.642,70.801,-3.418,-1.953,53.711,0
1664555629.646,-38.086,-35.156,-35.156,-29.785,0
1664555629.650,-96.680,-125.000,-0.488,-27.344,0
1664555629.654,48.828,-41.016,0.000,144.043,0
1664555629.658,-0.977,53.223,-61.035,-145.020,0
1664555629.659,66.406,2.930,-36.621,-156.738,0
1664555629.663,51.270,-63.477,-30.273,51.270,0
1664555629.667,-7.812,-36.621,-21.973,79.590,0
1664555629.671,-13.672,-71.289,3.418,-46.387,0
1664555629.675,52.246,-64.941,-24.414,-190.430,0
1664555629.679,279.785,-41.504,-67.871,-66.406,0
1664555629.683,75.684,-40.527,23.926,-20.020,0
1664555629.686,-24.902,-94.238,63.477,7.324,0
1664555629.690,136.719,-96.680,2.441,-90.332,0
1664555629.694,125.000,-46.387,-0.488,22.461,0
1664555629.698,105.469,-44.434,-0.977,19.531,0
1664555629.702,170.410,-63.477,-32.715,-81.055,0
1664555629.703,-163.574,-19.043,-58.594,-264.160,0
1664555629.707,130.859,-6.836,-74.219,-16.113,0
1664555629.711,411.621,-19.043,-18.066,312.500,0
1664555629.715,-1.465,-49.805,-9.766,57.617,0
1664555629.719,-26.367,-96.191,27.832,-266.113,0
1664555629.723,310.059,-79.102,-0.488,-94.727,0
1664555629.727,355.957,-25.391,-105.957,161.621,0
1664555629.730,300.781,-58.105,-73.730,-65.918,0
1664555629.734,187.012,-115.723,-41.504,13.184,0
1664555629.738,-125.977,-46.387,-24.414,-46.387,0
1664555629.742,116.211,-5.371,-37.598,-76.172,0
1664555629.746,501.465,-73.730,-91.797,154.785,0
1664555629.748,368.164,-104.980,-30.762,132.324,0
1664555629.752,79.590,-28.809,-30.273,-197.266,0
1664555629.756,102.539,-43.457,-55.664,-103.516,0
1664555629.760,238.770,-108.398,-5.859,62.012,0
1664555629.764,123.047,-70.312,-40.039,-90.332,0
1664555629.768,11.230,-37.109,-123.535,-127.930,0
1664555629.772,43.457,-119.141,-93.262,-122.070,0
1664555629.775,157.227,-149.414,2.441,-44.434,0
1664555629.779,62.012,-72.266,-25.879,-22.949,0
1664555629.783,125.000,-36.133,-34.668,-18.555,0
1664555629.787,-62.500,-36.133,6.348,-217.285,0
1664555629.791,36.621,-14.648,-51.270,-104.492,0
1664555629.793,270.020,-93.262,-66.895,191.895,0
1664555629.797,127.441,-102.539,-63.965,-17.578,0
1664555629.801,16.113,-84.473,-92.285,-83.496,0
1664555629.805,8.301,-63.477,-28.809,23.438,0
1664555629.809,-34.668,14.648,-32.715,-198.242,0
1664555629.813,-69.336,-59.570,-50.293,-415.527,0
1664555629.817,16.113,-179.688,6.348,-30.273,0
1664555629.820,-1.465,-96.680,-48.828,163.086,0
1664555629.824,-18.555,-48.828,-34.668,-30.762,0
1664555629.828,22.461,-59.570,-50.781,-35.156,0
1664555629.832,-20.996,-117.188,2.441,-58.105,0
1664555629.836,-72.266,-89.355,44.922,-114.258,0
1664555629.838,-156.250,-3.906,-16.602,-71.777,0
1664555629.842,-39.551,-54.199,-38.086,-132.812,0
1664555629.846,0.000,-94.238,-36.621,-141.113,0
1664555629.850,-152.832,-48.340,-75.684,-198.242,0
1664555629.854,-136.230,-46.875,-37.109,-110.352,90
1664555629.858,-17.090,-111.816,0.977,139.648,0
1664555629.862,-48.340,-173.828,-44.434,122.070,0
1664555629.865,-128.906,-141.602,-53.223,-96.680,0
1664555629.869,-144.531,-37.109,-26.855,-110.352,0
1664555629.873,-162.109,-59.082,-31.738,94.238,0
1664555629.877,-229.980,-61.523,-1.953,-25.879,0
1664555629.881,-272.949,-38.574,0.000,-187.500,0
1664555629.883,-255.859,-33.203,-70.801,-56.641,0
1664555629.887,-208.496,-42.969,-52.734,15.625,0
1664555629.891,-208.984,-34.668,-41.504,-38.574,0
1664555629.895,-266.602,-37.598,-13.672,-8.301,0
1664555629.899,-323.730,-51.758,-9.766,-34.180,0
1664555629.903,-280.762,-66.895,-33.203,-14.160,0
1664555629.907,-225.098,-86.426,-25.391,17.578,0
1664555629.910,-300.293,-16.602,-41.992,-73.242,0
1664555629.914,-296.387,-4.883,-36.621,-91.309,0
1664555629.918,-267.090,-51.270,-19.043,-18.066,0
1664555629.922,-322.266,-33.691,-19.531,-4.883,0
1664555629.926,-326.660,3.418,-17.578,-45.410,0
1664555629.928,-327.637,-14.160,-20.508,-87.402,0
1664555629.932,-277.344,-30.273,-22.949,-53.711,0
1664555629.936,-244.141,-25.391,-18.066,-20.508,0
1664555629.940,-252.930,3.418,-16.113,-51.270,0
1664555629.944,-272.949,2.930,-16.113,-93.750,0
1664555629.948,-264.648,-31.738,-16.602,-75.195,0
1664555629.952,-226.074,-17.090,-18.555,-46.875,0
1664555629.955,-217.773,17.578,-15.625,-61.523,0
1664555629.959,-240.723,10.742,-16.113,-109.375,0
1664555629.963,-247.559,-28.320,-19.531,-106.445,0
1664555629.967,-220.215,2.930,-22.461,-66.406,0
1664555629.971,-214.844,39.062,-16.113,-69.824,0
1664555629.988,-235.840,1.465,-13.672,-92.773,0
1664555629.992,-271.973,-8.301,-18.555,-116.699,0
1664555629.996,-255.371,20.020,-18.555,-83.496,0
1664555630.000,-249.023,12.207,-16.113,-61.035,0
1664555630.004,-280.762,-14.648,-15.625,-80.566,0
1664555630.008,-327.148,-22.949,-16.113,-109.863,0
1664555630.012,-332.031,22.461,-11.719,-93.750,0
1664555630.015,-333.984,56.152,-1.953,-65.430,0
1664555630.019,-355.957,-3.906,-1.953,-71.289,0
1664555630.023,-387.207,-41.992,-6.348,-112.305,0
1664555630.027,-393.066,35.645,-2.930,-126.465,0
1664555630.031,-376.465,40.527,-5.859,-98.633,0
1664555630.033,-375.488,-14.160,-14.160,-86.426,0
1664555630.037,-396.973,4.883,-10.254,-125.488,0
1664555630.041,-404.297,12.207,-5.371,-152.832,0
1664555630.045,-369.141,7.812,-9.277,-112.305,0
1664555630.049,-338.867,15.137,-6.836,-81.543,0
1664555630.053,-345.703,-3.906,-3.418,-101.562,0
1664555630.057,-374.512,-2.930,-2.441,-132.324,0
1664555630.060,-330.078,8.789,3.906,-99.121,0
1664555630.064,-282.227,-18.555,7.324,-65.430,0
1664555630.068,-284.668,-0.488,2.441,-92.285,0
1664555630.072,-309.570,45.898,-4.883,-149.414,0
1664555630.076,-274.414,18.555,-3.418,-111.328,0
1664555630.078,-224.121,7.324,0.977,-63.965,0
1664555630.082,-209.473,41.504,-3.418,-83.008,0
1664555630.086,-227.051,38.086,-4.883,-113.281,0
1664555630.090,-218.262,2.930,-5.371,-101.562,0
1664555630.094,-161.621,-7.324,-2.930,-62.500,0
1664555630.098,-131.836,-3.418,-2.930,-57.129,0
1664555630.102,-129.395,22.461,-6.348,-96.191,0
1664555630.105,-130.859,-4.395,-6.836,-110.352,0
1664555630.109,-87.402,-41.992,-9.277,-58.594,0
1664555630.113,-49.805,40.039,-5.371,-52.246,0
1664555630.117,-53.711,51.270,-3.418,-83.984,0
1664555630.121,-61.523,-1.465,-4.883,-103.516,0
1664555630.124,-20.020,8.301,0.977,-70.801,0
1664555630.128,9.766,37.598,-3.418,-61.035,0
1664555630.132,14.648,0.000,-8.789,-73.242,0
1664555630.136,-2.930,-14.160,-5.859,-103.516,0
1664555630.140,20.996,9.766,0.000,-92.773,0
1664555630.144,63.477,-2.930,2.441,-50.781,0
1664555630.148,65.918,2.441,0.000,-58.594,0
1664555630.151,36.621,-43.945,-3.418,-83.008,0
1664555630.155,29.297,-12.695,-3.418,-83.008,0
1664555630.159,62.500,61.523,-0.977,-63.965,0
1664555630.163,65.430,-1.953,-2.441,-56.152,0
1664555630.167,44.922,-19.043,-5.859,-85.449,0
1664555630.168,35.645,9.277,-10.742,-106.445,0
1664555630.172,65.918,16.602,-10.742,-67.383,0
1664555630.176,86.426,-11.719,-7.812,-45.410,0
1664555630.180,75.195,-19.043,-10.742,-66.895,0
1664555630.184,41.504,0.977,-7.324,-105.469,0
1664555630.188,57.129,-10.742,-5.859,-79.102,0
1664555630.192,85.938,-35.645,-9.766,-40.527,0
1664555630.195,77.148,-39.551,-5.859,-50.293,0
1664555630.199,29.785,14.648,-6.836,-101.562,0
1664555630.203,31.738,13.184,-6.836,-89.355,0
1664555630.207,70.312,-23.926,-7.324,-33.203,0
1664555630.211,73.242,-12.207,-9.277,-35.645,0
1664555630.229,41.504,-13.184,-5.859,-78.613,0
1664555630.233,26.855,-27.344,-12.207,-80.078,0
1664555630.237,67.383,-29.785,-18.555,-27.344,0
1664555630.241,72.266,-14.160,-15.137,-24.414,0
1664555630.245,49.805,-8.789,-18.555,-68.359,0
1664555630.249,47.363,-28.320,-14.648,-85.938,0
1664555630.253,76.172,-64.941,-15.137,-39.551,0
1664555630.256,87.402,-42.480,-22.461,-20.996,0
1664555630.260,64.941,24.414,-21.973,-67.871,0
1664555630.264,40.527,-12.207,-21.973,-103.027,0
1664555630.268,64.941,-24.414,-15.625,-71.289,0
1664555630.272,105.957,-3.906,-15.137,-36.621,0
1664555630.258,107.422,-2.441,-16.602,-50.293,0
1664555630.262,62.988,-27.832,-11.719,-93.750,0
1664555630.266,62.012,-47.363,-14.160,-83.984,0
1664555630.270,95.703,-20.020,-10.742,-44.434,0
1664555630.274,87.891,0.000,-14.648,-56.152,0
1664555630.278,57.617,-52.734,-19.531,-82.520,0
1664555630.282,42.480,-60.059,-21.484,-89.844,0
1664555630.285,70.801,5.859,-20.996,-55.176,0
1664555630.289,85.938,17.090,-15.137,-39.551,0
1664555630.293,63.477,-47.852,-11.719,-59.570,0
1664555630.297,24.414,-83.984,-15.625,-74.707,0
1664555630.301,29.785,-3.906,-25.879,-65.430,0
1664555630.304,50.293,9.277,-23.438,-57.129,0
1664555630.308,45.410,-33.691,-14.160,-69.824,0
1664555630.312,5.859,-49.805,-18.066,-97.656,0
1664555630.316,6.348,-10.254,-20.508,-80.078,0
1664555630.320,36.133,-7.812,-11.719,-40.527,0
1664555630.324,36.133,-45.898,-13.672,-41.016,0
1664555630.328,-9.766,-46.387,-20.508,-87.402,0
1664555630.331,-23.438,-8.301,-21.484,-100.586,0
1664555630.335,19.043,2.441,-16.602,-64.941,0
1664555630.339,14.160,-54.199,-19.043,-45.898,0
1664555630.343,-26.367,-30.762,-28.320,-96.191,0
1664555630.347,-32.227,14.648,-20.508,-120.605,0
1664555630.364,8.789,-9.766,-9.277,-54.199,0
1664555630.368,13.184,-24.902,-14.160,-42.480,0
1664555630.372,-12.207,-13.184,-19.531,-78.125,0
1664555630.376,-35.156,-11.719,-20.508,-111.816,0
1664555630.380,-9.766,-37.109,-20.508,-82.520,0
1664555630.384,9.766,-62.500,-21.484,-50.293,0
1664555630.388,-19.043,-41.504,-22.949,-80.566,0
1664555630.391,-56.152,-26.367,-19.531,-121.582,0
1664555630.395,-39.062,-51.270,-16.113,-95.215,0
1664555630.399,-15.137,-52.734,-16.602,-57.617,0
1664555630.403,-14.648,7.812,-19.531,-76.172,0
1664555630.407,-39.062,-10.254,-13.184,-110.840,0
1664555630.409,-50.293,-41.504,-9.277,-98.633,0
1664555630.413,-13.184,-19.043,-11.719,-59.082,0
1664555630.417,0.977,-30.762,-13.672,-56.641,0
1664555630.421,-17.090,-36.621,-12.695,-89.355,0
1664555630.425,-37.109,-40.039,-11.230,-104.492,0
1664555630.429,-0.977,-51.758,-15.625,-61.035,0
1664555630.433,15.137,-26.855,-17.090,-49.805,0
1664555630.436,-3.418,-4.395,-15.625,-84.473,0
1664555630.440,-19.043,-75.195,-21.484,-99.121,0
1664555630.444,4.395,-76.660,-23.438,-71.777,0
1664555630.448,26.367,7.812,-16.113,-65.430,0
1664555630.452,17.578,-4.883,-13.672,-79.102,0
1664555630.454,-12.207,-33.203,-18.555,-110.840,0
1664555630.458,-10.742,-22.949,-25.391,-100.586,0
1664555630.462,34.668,-11.230,-22.949,-63.965,0
1664555630.466,46.387,-32.227,-20.020,-57.129,0
1664555630.470,13.672,-60.547,-25.391,-91.309,0
1664555630.474,3.906,-54.688,-29.785,-101.074,0
1664555630.478,32.227,-18.555,-25.879,-59.570,0
1664555630.481,39.551,-34.180,-25.391,-43.945,0
1664555630.485,11.719,-81.055,-35.156,-62.988,0
1664555630.489,-25.879,-13.672,-33.203,-109.375,0
1664555630.493,2.930,5.371,-26.855,-84.961,0
1664555630.497,28.320,-42.969,-32.715,-54.688,0
1664555630.514,7.812,-40.039,-33.203,-82.031,0
1664555630.518,-28.809,-10.742,-28.320,-120.605,0
1664555630.522,2.441,-37.109,-33.203,-86.426,0
1664555630.526,31.250,-33.691,-39.551,-44.434,0
1664555630.530,16.602,-12.695,-25.391,-59.082,0
1664555630.534,-20.996,-38.086,-10.742,-103.027,0
1664555630.538,-29.297,-26.855,-13.184,-95.703,0
1664555630.541,6.836,-59.570,-17.578,-46.875,0
1664555630.545,3.906,-47.363,-16.113,-48.340,0
1664555630.549,-36.133,16.113,-12.207,-105.957,0
1664555630.553,-53.711,-15.137,-12.695,-115.723,0
1664555630.557,-24.902,-25.391,-9.766,-66.895,0
1664555630.544,-27.344,-14.648,-14.160,-58.105,0
1664555630.548,-39.062,-17.090,-22.949,-88.867,0
1664555630.552,-50.781,-45.898,-23.926,-111.816,0
1664555630.556,-30.273,-35.156,-24.902,-84.473,0
1664555630.560,-6.348,-15.625,-24.902,-70.801,0
1664555630.564,-13.184,-36.621,-19.043,-83.496,0
1664555630.568,-44.922,-56.641,-20.508,-112.793,0
1664555630.571,-32.227,-46.387,-26.855,-99.121,0
1664555630.575,-6.348,-6.348,-26.367,-76.172,0
1664555630.579,-21.973,-8.789,-27.344,-86.914,0
1664555630.583,-47.852,-76.172,-27.832,-114.258,0
1664555630.587,-40.527,-93.262,-28.809,-108.887,0
1664555630.589,-12.207,2.441,-28.320,-93.262,0
1664555630.593,-6.348,1.465,-25.879,-90.332,0
1664555630.597,-38.086,-60.059,-34.668,-111.816,0
1664555630.601,-61.523,-53.223,-35.645,-135.742,0
1664555630.605,-24.414,-23.438,-26.855,-89.355,0
1664555630.609,-1.953,-42.969,-28.320,-61.523,0
1664555630.613,-26.367,-50.781,-27.344,-89.355,0
1664555630.616,-53.223,-19.043,-27.344,-125.488,0
1664555630.620,-19.043,0.977,-24.902,-94.727,0
1664555630.624,2.441,-24.902,-23.926,-56.152,0
1664555630.628,-8.301,-70.312,-30.762,-59.570,0
1664555630.632,-36.621,-41.504,-33.691,-102.539,0
1664555630.634,-30.273,0.488,-26.367,-105.469,0
1664555630.638,9.277,-29.297,-19.043,-58.105,0
1664555630.642,15.625,-39.062,-20.996,-53.711,0
1664555630.646,-29.297,-18.555,-18.066,-104.980,0
1664555630.650,-35.645,-23.438,-14.160,-110.352,0
1664555630.654,6.348,-59.082,-18.555,-57.617,0
1664555630.658,7.324,-91.797,-22.949,-36.621,0
1664555630.661,-24.902,-38.574,-25.879,-87.891,0
1664555630.665,-46.387,-1.465,-27.832,-130.859,0
1664555630.669,-14.160,-30.762,-23.926,-79.102,0
1664555630.673,8.301,-23.438,-16.602,-49.316,0
1664555630.677,-7.324,-9.766,-15.625,-82.031,0
1664555630.694,-41.504,-20.996,-20.508,-119.629,0
1664555630.698,-22.461,-38.086,-21.973,-84.473,0
1664555630.702,4.395,-49.316,-21.973,-47.852,0
1664555630.706,-7.324,-26.855,-29.785,-76.172,0
1664555630.710,-47.852,-22.949,-31.250,-132.812,0
1664555630.714,-34.668,-63.965,-24.902,-98.633,0
1664555630.718,-7.812,-39.551,-32.715,-56.152,0
1664555630.721,-16.602,0.488,-31.738,-75.195,0
1664555630.725,-53.223,-34.180,-29.785,-113.281,0
1664555630.729,-58.594,-56.641,-32.715,-116.699,0
1664555630.733,-15.625,-9.766,-25.879,-78.613,0
1664555630.737,-11.719,-0.488,-25.879,-74.707,0
1664555630.739,-35.645,-38.574,-27.832,-98.633,0
1664555630.743,-58.105,-44.922,-24.414,-125.000,0
1664555630.747,-34.668,-16.602,-28.809,-95.215,0
1664555630.751,-25.879,-8.789,-30.273,-76.172,0
1664555630.755,-39.062,-42.969,-25.879,-97.656,0
1664555630.759,-66.895,-68.848,-28.809,-128.418,0
1664555630.763,-55.664,-35.645,-32.227,-107.910,0
1664555630.766,-33.691,-3.418,-31.738,-81.055,0
1664555630.770,-37.109,-48.828,-32.715,-81.543,0
1664555630.774,-69.824,-88.867,-39.551,-108.398,0
1664555630.778,-71.289,-27.344,-38.574,-122.559,0
1664555630.782,-37.598,-27.832,-33.203,-84.473,0
1664555630.785,-34.668,-59.082,-34.668,-75.684,0
1664555630.789,-65.918,-39.062,-33.691,-126.465,0
1664555630.793,-83.496,-39.551,-29.785,-148.438,0
1664555630.797,-45.410,-48.340,-29.785,-100.586,0
1664555630.801,-24.902,-38.086,-30.273,-80.566,0
1664555630.805,-45.898,-41.504,-31.250,-104.004,0
1664555630.809,-83.984,-41.504,-41.504,-138.672,0
1664555630.812,-52.246,-16.113,-43.945,-112.305,0
1664555630.816,-16.113,-66.406,-35.156,-60.547,0
1664555630.820,-38.086,-62.988,-28.320,-84.473,0
1664555630.824,-77.148,-5.859,-27.344,-143.555,0
1664555630.828,-56.641,-33.691,-27.832,-108.398,0
1664555630.829,-29.785,-42.969,-34.180,-73.242,0
1664555630.833,-33.203,-44.922,-37.598,-87.891,0
1664555630.837,-57.129,-45.410,-33.203,-122.070,0
1664555630.841,-50.293,-41.992,-30.273,-118.164,0
1664555630.845,-18.555,-46.387,-28.320,-84.961,0
1664555630.849,-26.855,-40.039,-32.715,-87.402,0
1664555630.853,-52.246,-31.250,-38.086,-125.000,0
1664555630.856,-68.359,-49.805,-45.410,-144.531,71
1664555630.860,-39.551,-58.594,-41.016,-95.215,0
1664555630.864,-32.715,6.348,-36.621,-98.633,0
1664555630.868,-59.570,1.465,-39.062,-138.184,0
1664555630.872,-93.750,-49.316,-40.039,-164.551,0
1664555630.875,-79.590,-37.109,-43.457,-141.602,0
1664555630.879,-51.758,-20.996,-39.062,-105.957,0
1664555630.883,-51.758,-53.223,-39.062,-101.562,0
1664555630.887,-87.891,-56.641,-41.992,-139.160,0
1664555630.891,-72.266,-39.551,-40.527,-126.953,0
1664555630.895,-31.738,-35.156,-40.527,-83.008,0
1664555630.899,-30.762,-14.648,-31.738,-87.402,0
1664555630.902,-62.012,-66.895,-30.273,-108.887,0
1664555630.906,-76.172,-62.988,-36.621,-117.188,0
1664555630.910,-45.898,22.949,-36.621,-96.680,0
1664555630.914,-29.785,-7.324,-36.621,-83.984,0
1664555630.918,-48.828,-28.320,-36.621,-109.863,0
1664555630.918,-78.613,-15.625,-34.668,-133.789,0
1664555630.922,-42.969,-9.766,-28.320,-100.098,0
1664555630.926,-26.855,-30.273,-26.855,-76.660,0
1664555630.930,-45.898,-38.086,-28.809,-101.562,0
1664555630.934,-76.172,-35.156,-31.738,-142.090,0
1664555630.938,-56.152,-46.387,-33.203,-104.980,0
1664555630.942,-22.949,-54.199,-33.691,-62.988,0
1664555630.945,-35.156,-62.012,-35.645,-80.566,0
1664555630.949,-74.219,-8.301,-37.598,-143.066,0
1664555630.953,-61.035,3.906,-33.691,-131.348,0
1664555630.957,-20.020,-28.320,-27.832,-75.195,0
1664555630.961,-21.484,-30.762,-26.367,-83.008,0
1664555630.963,-52.734,-23.926,-26.367,-122.559,0
1664555630.967,-60.547,-34.180,-23.926,-121.094,0
1664555630.971,-28.320,-61.523,-22.949,-67.383,0
1664555630.975,-21.484,-47.363,-27.344,-64.453,0
1664555630.979,-51.270,-28.320,-25.879,-106.445,0
1664555630.983,-78.613,-55.664,-30.762,-130.371,0
1664555630.987,-46.387,-98.145,-37.598,-83.008,0
1664555630.990,-36.133,-74.707,-35.156,-63.965,0
1664555630.994,-62.988,-13.672,-35.156,-113.281,0
1664555630.998,-92.285,-35.645,-39.062,-140.137,0
1664555631.002,-65.918,-30.273,-34.668,-104.980,0
1664555631.006,-28.320,-10.742,-28.809,-73.730,0
1664555631.008,-31.250,-6.836,-31.738,-89.355,0
1664555631.012,-60.547,-37.109,-29.297,-124.023,0
1664555631.016,-58.105,-35.156,-25.879,-107.910,0
1664555631.020,-24.414,-3.906,-24.414,-65.430,0
1664555631.024,-20.020,-16.602,-24.902,-65.430,0
1664555631.028,-48.828,-67.383,-31.250,-92.285,0
1664555631.032,-65.918,-65.430,-30.273,-102.051,0
1664555631.035,-31.738,8.301,-27.344,-72.754,0
1664555631.039,-13.184,26.367,-23.926,-59.570,0
1664555631.043,-28.320,-39.062,-24.902,-77.148,0
1664555631.047,-52.246,-73.242,-34.180,-100.098,0
1664555631.051,-33.691,-11.719,-38.086,-79.102,0
1664555631.054,-7.324,2.930,-34.180,-52.246,0
1664555631.058,-16.113,-39.551,-31.738,-59.082,0
1664555631.062,-46.387,-60.547,-29.297,-78.125,0
1664555631.066,-28.809,-24.902,-24.414,-66.406,0
1664555631.070,5.371,4.395,-23.438,-45.410,0
1664555631.074,10.742,-41.504,-26.855,-41.504,0
1664555631.078,-25.879,-39.551,-27.832,-86.426,0
1664555631.081,-31.738,3.418,-28.809,-91.309,0
1664555631.085,8.789,-6.348,-32.227,-43.457,0
1664555631.089,18.555,-55.664,-30.273,-32.227,0
1664555631.093,-18.066,-39.551,-32.715,-80.566,0
1664555631.097,-41.992,4.395,-32.227,-113.770,0
1664555631.114,0.977,-23.438,-22.949,-57.617,0
1664555631.118,12.695,-30.273,-22.461,-37.598,0
1664555631.122,-9.277,0.488,-26.855,-72.754,0
1664555631.126,-40.527,-6.836,-21.973,-102.051,0
1664555631.130,-14.648,-40.039,-11.230,-59.570,0
1664555631.134,10.254,-61.035,-10.742,-28.809,0
1664555631.138,-17.578,-22.949,-14.648,-66.406,0
1664555631.141,-64.453,-2.441,-20.996,-117.676,0
1664555631.145,-51.758,-47.852,-25.391,-88.379,0
1664555631.149,-20.508,-67.383,-23.438,-44.922,0
1664555631.153,-33.691,-8.789,-22.949,-66.406,0
1664555631.157,-74.219,-15.625,-26.855,-108.398,0
1664555631.159,-76.660,-54.199,-27.832,-100.098,0
1664555631.163,-38.574,-35.645,-27.832,-58.105,0
1664555631.167,-31.738,-32.227,-24.902,-56.152,0
1664555631.171,-62.500,-48.340,-20.508,-84.473,0
1664555631.175,-89.844,-37.109,-18.555,-104.980,0
1664555631.179,-57.129,-41.016,-21.484,-70.801,0
1664555631.183,-38.086,-31.738,-24.414,-54.688,0
1664555631.186,-57.617,-12.695,-22.461,-82.031,0
1664555631.190,-85.449,-80.078,-16.113,-92.285,0
1664555631.194,-67.871,-67.383,-19.531,-61.523,0
1664555631.198,-37.598,11.719,-21.484,-46.875,0
1664555631.202,-36.621,-20.020,-14.648,-46.387,0
1664555631.204,-77.148,-42.969,-16.113,-84.473,0
1664555631.208,-76.660,-13.672,-22.949,-82.031,0
1664555631.212,-36.621,-3.906,-20.508,-33.691,0
1664555631.216,-20.996,-37.598,-10.254,-22.461,0
1664555631.220,-36.621,-63.477,-8.789,-45.898,0
1664555631.224,-59.082,-43.457,-20.508,-66.895,0
1664555631.228,-47.852,-21.484,-25.879,-45.898,0
1664555631.231,-41.992,-35.156,-25.879,-40.527,0
1664555631.235,-57.617,-61.035,-27.832,-57.617,0
1664555631.239,-86.426,5.371,-28.320,-97.168,0
1664555631.243,-65.918,44.922,-35.156,-86.914,0
1664555631.247,-40.527,0.488,-37.109,-63.965,0
1664555631.264,-45.898,1.953,-41.016,-81.055,0
1664555631.268,-88.379,14.648,-50.293,-117.188,0
1664555631.272,-74.707,-26.855,-41.016,-87.891,0
1664555631.276,-47.363,-31.738,-38.086,-48.340,0
1664555631.280,-59.082,-10.742,-37.598,-65.430,0
1664555631.284,-86.914,-36.133,-28.809,-99.609,0
1664555631.288,-90.332,-23.438,-26.855,-96.680,0
1664555631.291,-53.711,-58.594,-32.715,-42.969,0
1664555631.295,-44.434,-49.316,-37.109,-40.527,0
1664555631.299,-74.707,21.973,-36.133,-104.004,0
1664555631.303,-77.637,-6.348,-28.320,-110.352,0
1664555631.307,-33.691,-22.461,-26.855,-50.781,0
1664555631.294,-18.555,-5.371,-27.344,-32.227,0
1664555631.298,-39.062,4.395,-21.484,-61.035,0
1664555631.302,-67.871,-24.902,-15.625,-77.148,0
1664555631.306,-37.598,-30.762,-13.672,-36.133,0
1664555631.310,-16.113,-22.949,-15.625,-17.578,0
1664555631.314,-33.691,-33.203,-16.113,-39.062,0
1664555631.318,-66.406,-45.410,-22.949,-71.289,0
1664555631.321,-48.340,-40.039,-22.461,-47.363,0
1664555631.325,-21.484,4.883,-17.578,-22.949,0
1664555631.329,-29.297,-0.977,-18.555,-32.715,0
1664555631.333,-65.918,-60.059,-20.020,-61.035,0
1664555631.337,-80.078,-72.754,-33.203,-67.383,0
1664555631.339,-52.734,1.465,-28.320,-47.363,0
1664555631.343,-36.133,10.254,-20.020,-47.852,0
1664555631.347,-62.012,-46.875,-26.855,-81.055,0
1664555631.351,-92.285,-41.992,-25.879,-106.445,0
1664555631.355,-56.152,-12.695,-23.926,-65.918,0
1664555631.359,-35.645,-24.902,-22.949,-44.922,0
1664555631.363,-50.293,-66.406,-15.137,-56.641,0
1664555631.366,-83.496,-59.570,-13.184,-83.984,0
1664555631.370,-78.613,21.484,-23.926,-89.844,0
1664555631.374,-43.457,8.301,-12.695,-49.316,0
1664555631.378,-40.039,8.301,6.836,-48.340,0
1664555631.382,-100.586,4.883,-3.906,-109.863,0
1664555631.384,-101.562,-14.648,-5.371,-96.191,0
1664555631.388,-63.477,5.859,2.441,-60.547,0
1664555631.392,-78.125,8.301,12.695,-82.031,0
1664555631.396,-130.859,19.043,25.391,-130.859,0
1664555631.400,-163.574,18.555,11.719,-167.969,0
1664555631.404,-125.000,-13.672,-0.488,-126.465,0
1664555631.408,-120.605,-13.184,12.207,-113.281,0
1664555631.411,-203.125,32.715,20.508,-216.309,0
1664555631.415,-267.578,43.945,15.625,-293.457,0
1664555631.419,-230.957,38.086,35.645,-244.629,0
1664555631.423,-231.934,43.945,45.410,-240.723,0
1664555631.427,-277.832,52.246,33.691,-298.340,0
1664555631.444,-312.012,63.965,45.898,-333.008,0
1664555631.448,-299.805,55.664,57.617,-312.988,0
1664555631.452,-285.156,36.621,45.898,-290.039,0
1664555631.456,-305.176,27.832,39.551,-322.266,0
1664555631.460,-336.914,43.945,48.340,-367.188,0
1664555631.464,-332.520,5.371,48.828,-339.355,0
1664555631.468,-292.480,18.066,43.945,-301.270,0
1664555631.471,-287.598,87.402,47.852,-315.918,0
1664555631.475,-317.871,48.828,45.410,-339.844,0
1664555631.479,-321.289,27.832,37.598,-332.520,0
1664555631.483,-274.902,54.688,36.621,-279.297,0
1664555631.487,-250.000,58.105,32.715,-257.324,0
1664555631.490,-255.859,41.016,33.203,-270.508,0
1664555631.494,-267.090,38.574,32.227,-285.645,0
1664555631.498,-232.422,60.059,23.438,-248.535,0
1664555631.502,-201.172,65.918,19.531,-215.332,0
1664555631.506,-200.195,38.574,22.949,-219.238,0
1664555631.510,-215.820,9.277,20.996,-231.445,0
1664555631.514,-187.012,17.090,6.836,-198.242,0
1664555631.517,-146.484,52.734,0.977,-166.504,0
1664555631.521,-131.836,18.555,-1.465,-155.273,0
1664555631.525,-151.855,-26.367,-13.184,-159.668,0
1664555631.529,-140.625,42.480,-18.066,-150.879,0
1664555631.533,-81.543,49.316,-18.555,-99.121,0
1664555631.534,-58.105,9.277,-20.996,-71.777,0
1664555631.538,-72.754,-5.371,-28.320,-89.355,0
1664555631.542,-77.637,-19.531,-33.691,-90.332,0
1664555631.546,-32.227,-5.859,-34.180,-39.551,0
1664555631.550,-2.441,-11.719,-39.551,-10.254,0
1664555631.554,-21.973,-42.969,-46.387,-31.738,0
1664555631.558,-41.016,-37.598,-53.711,-57.617,0
1664555631.561,4.883,-25.879,-59.570,-6.836,0
1664555631.565,41.992,-75.684,-62.012,52.734,0
1664555631.569,32.227,-68.848,-68.359,33.203,0
1664555631.573,2.930,-9.766,-77.637,-23.438,0
1664555631.577,27.344,-39.551,-81.055,4.395,0
1664555631.580,65.430,-47.363,-77.637,44.434,0
1664555631.584,67.871,-33.203,-80.078,39.551,0
1664555631.588,34.180,-48.828,-82.031,5.859,0
1664555631.592,36.133,-81.055,-77.148,18.555,0
1664555631.596,77.148,-86.914,-74.707,76.172,0
1664555631.600,90.820,-77.148,-72.266,93.262,0
1664555631.604,72.266,-54.688,-64.941,59.570,0
1664555631.607,62.500,-67.871,-57.129,51.270,0
1664555631.611,90.332,-99.609,-58.105,104.004,0
1664555631.615,96.191,-56.152,-62.012,101.562,0
1664555631.619,75.195,-44.434,-66.406,61.523,0
1664555631.623,43.945,-81.543,-69.336,37.598,0
1664555631.625,69.336,-74.219,-63.965,66.406,0
1664555631.629,94.238,-50.781,-61.035,93.262,0
1664555631.633,82.031,-87.891,-61.523,81.543,0
1664555631.637,40.039,-95.215,-57.129,42.480,0
1664555631.641,43.945,-72.754,-56.641,45.410,0
1664555631.645,81.055,-86.914,-54.199,74.707,0
1664555631.649,87.891,-74.707,-50.781,65.430,0
1664555631.652,61.035,-104.492,-56.152,31.250,0
1664555631.656,53.223,-91.797,-55.664,22.949,0
1664555631.660,85.938,-17.090,-53.711,46.875,0
1664555631.664,95.703,-45.898,-53.711,55.176,0
1664555631.668,74.219,-83.984,-50.781,33.203,0
1664555631.684,42.480,-65.430,-52.246,8.789,0
1664555631.688,60.059,-22.461,-50.781,36.133,0
1664555631.692,75.684,-42.969,-48.828,63.965,0
1664555631.696,62.988,-56.152,-49.805,49.316,0
1664555631.700,29.297,-49.316,-48.340,13.672,0
1664555631.704,40.527,-63.477,-47.363,29.297,0
1664555631.708,61.523,-72.266,-42.480,55.176,0
1664555631.711,49.316,-89.355,-40.527,50.293,0
1664555631.715,9.277,-34.668,-42.969,-2.930,0
1664555631.719,18.555,-4.395,-34.180,-3.906,0
1664555631.723,52.734,-46.387,-28.320,39.551,0
1664555631.727,44.434,-52.734,-34.180,35.156,0
1664555631.714,6.348,-35.645,-35.156,-6.348,0
1664555631.718,-2.441,-41.504,-35.156,-11.230,0
1664555631.722,36.621,-58.105,-39.551,39.551,0
1664555631.726,38.086,-54.688,-42.969,41.016,0
1664555631.730,15.137,-30.273,-37.598,6.348,0
1664555631.734,-3.418,-56.152,-34.668,-8.789,0
1664555631.738,21.484,-56.152,-27.832,24.902,0
1664555631.741,37.598,-19.531,-22.461,37.109,0
1664555631.745,21.973,-18.555,-29.297,9.277,0
1664555631.749,-10.254,-24.902,-28.809,-26.855,0
1664555631.753,15.625,-83.008,-20.996,13.672,0
1664555631.757,32.715,-62.012,-24.414,38.086,0
1664555631.760,13.672,3.906,-24.414,-0.977,0
1664555631.764,-12.695,-36.621,-25.391,-35.156,0
1664555631.768,-10.742,-51.758,-33.203,-29.297,0
1664555631.772,19.531,-26.367,-31.738,6.348,0
1664555631.776,19.043,-38.086,-27.344,7.812,0
1664555631.780,-4.883,-66.895,-20.996,-20.996,0
1664555631.784,-23.438,-73.730,-21.973,-26.855,0
1664555631.787,0.488,-11.230,-25.879,-3.906,0
1664555631.791,9.277,5.859,-20.996,-1.465,0
1664555631.795,-11.230,-45.410,-27.832,-22.461,0
1664555631.799,-36.133,-48.340,-27.832,-41.992,0
1664555631.803,-15.625,-11.719,-14.160,-12.695,0
1664555631.820,11.719,-21.973,-9.766,5.859,0
1664555631.824,-3.418,-55.176,-5.859,-17.090,0
1664555631.828,-37.598,-70.801,-11.230,-58.594,0
1664555631.832,-28.809,-35.645,-19.043,-50.293,0
1664555631.836,4.883,-16.113,-20.508,-13.672,0
1664555631.840,15.625,-66.406,-20.996,-1.953,0
1664555631.844,-23.926,-76.172,-21.973,-45.410,0
1664555631.847,-30.762,-16.602,-15.137,-63.965,0
1664555631.851,10.254,-6.348,-10.254,-28.809,0
1664555631.855,20.996,-48.340,-11.230,-17.578,0
1664555631.859,-11.230,-49.316,-16.113,-59.082,0
1664555631.863,-39.062,-31.250,-17.578,-88.867,0
1664555631.865,-6.836,-31.250,-10.254,-44.922,0
1664555631.869,15.625,-38.086,-6.836,-21.484,0
1664555631.873,5.371,-25.879,-0.977,-44.922,0
1664555631.877,-21.484,-24.414,0.977,-73.730,0
1664555631.881,7.324,-42.480,-4.883,-34.180,0
1664555631.885,38.574,-64.453,-5.859,3.418,0
1664555631.889,24.414,-33.203,-2.930,-26.855,0
1664555631.892,-10.254,-2.441,-5.859,-76.660,0
1664555631.896,0.000,-49.316,-11.719,-52.734,0
1664555631.900,31.738,-77.637,-12.207,-4.395,0
1664555631.904,24.902,-3.906,-14.648,-29.297,0
1664555631.908,0.000,3.418,-7.812,-77.148,0
1664555631.909,-10.742,-41.992,-4.883,-70.312,0
1664555631.913,17.090,-26.855,-10.742,-31.738,0
1664555631.917,24.902,-16.602,-5.859,-25.391,0
1664555631.921,1.953,-34.668,-3.906,-58.105,0
1664555631.925,-21.484,-41.016,-5.859,-83.496,0
1664555631.929,6.836,-43.945,-8.301,-31.738,0
1664555631.933,19.531,-9.766,-13.672,-17.578,0
1664555631.936,-1.465,5.859,-15.137,-56.641,0
1664555631.940,-32.227,-84.961,-16.602,-71.289,0
1664555631.944,-25.879,-71.289,-16.113,-44.434,0
1664555631.948,-2.441,17.090,-7.812,-39.062,0
1664555631.952,-7.812,-28.320,-5.371,-55.176,0
1664555631.954,-52.734,-39.062,-16.602,-95.215,0
1664555631.958,-49.805,-9.277,-15.625,-90.332,0
1664555631.962,-19.043,-14.648,-15.625,-50.781,0
1664555631.966,-21.484,-46.387,-17.090,-45.410,0
1664555631.970,-57.617,-59.082,-13.184,-80.566,0
1664555631.974,-69.824,-58.105,-13.184,-87.891,0
1664555631.978,-36.621,-28.809,-10.742,-52.246,0
1664555631.981,-29.297,-39.551,-10.742,-44.434,0
1664555631.985,-52.734,-81.055,-14.160,-63.965,0
1664555631.989,-85.938,-15.625,-15.625,-109.375,0
1664555631.993,-47.363,-1.953,-17.090,-79.590,0
1664555631.997,-18.066,-42.480,-18.066,-38.086,0
1664555632.000,-35.156,-36.621,-12.207,-60.059,0
1664555632.004,-70.801,-27.832,-15.137,-102.051,0
1664555632.008,-55.176,-46.875,-16.113,-78.125,0
1664555632.012,-21.973,-39.551,-17.090,-41.504,0
1664555632.016,-21.973,-21.484,-20.996,-54.688,0
1664555632.020,-58.594,-38.574,-12.207,-90.332,0
1664555632.024,-67.383,-27.344,-12.695,-90.820,0
1664555632.027,-27.832,-65.918,-17.090,-38.574,0
1664555632.031,-21.973,-58.594,-13.184,-22.949,0
1664555632.035,-58.105,11.230,-20.508,-83.008,0
1664555632.039,-75.684,-18.066,-19.531,-105.469,0
1664555632.043,-41.016,-27.832,-17.090,-55.664,0
1664555632.044,-23.438,-11.719,-13.184,-45.410,0
1664555632.048,-36.621,-8.789,-11.230,-79.590,0
1664555632.052,-58.594,-28.320,-8.789,-92.773,0
1664555632.056,-29.297,-46.387,-0.488,-48.828,0
1664555632.060,-6.348,-33.203,-0.977,-29.297,0
1664555632.064,-23.438,-30.762,-7.812,-62.988,0
1664555632.068,-48.340,-50.781,-12.695,-92.285,0
1664555632.071,-37.109,-67.383,-15.137,-62.012,0
1664555632.075,-17.578,-4.883,-10.742,-39.551,0
1664555632.079,-13.184,21.484,-8.789,-50.293,0
1664555632.083,-43.945,-24.414,-15.625,-78.613,0
1664555632.087,-52.246,-31.250,-14.160,-78.613,0
1664555632.090,-8.789,-0.977,-13.184,-35.645,0
1664555632.094,2.441,-10.254,-14.648,-32.715,0
1664555632.098,-33.203,-51.758,-17.090,-65.918,0
1664555632.102,-67.383,-30.762,-20.996,-92.285,0
1664555632.106,-36.133,-18.555,-20.020,-65.918,0
1664555632.110,-7.324,-39.062,-15.137,-47.852,0
1664555632.114,-30.762,-78.125,-17.090,-68.359,0
1664555632.117,-78.125,-71.289,-20.508,-103.027,0
1664555632.121,-62.500,5.371,-21.484,-93.262,0
1664555632.125,-31.738,-15.137,-16.602,-59.082,0
1664555632.129,-34.180,-28.809,-12.207,-71.777,0
1664555632.133,-69.336,-14.160,-14.160,-112.793,0
1664555632.134,-65.430,-11.719,-15.137,-100.098,0
1664555632.138,-22.461,-22.949,-13.184,-52.246,0
1664555632.142,-13.184,-33.691,-13.184,-44.922,0
1664555632.146,-52.734,-12.207,-12.695,-90.332,0
1664555632.150,-62.012,-16.602,-15.625,-89.844,0
1664555632.154,-15.137,-45.410,-15.625,-31.738,0
1664555632.158,-9.766,-56.641,-13.184,-24.414,0
1664555632.161,-40.527,-15.625,-16.602,-68.848,0
1664555632.165,-59.082,-11.230,-18.555,-92.285,0
1664555632.169,-29.297,-26.367,-15.137,-53.223,0
1664555632.173,-10.254,-13.184,-16.602,-39.551,0
1664555632.177,-36.133,-10.742,-21.973,-73.730,0
1664555632.179,-76.660,-20.020,-18.555,-107.910,0
1664555632.183,-47.852,-35.645,-19.531,-73.730,0
1664555632.187,-14.160,-50.781,-13.672,-27.832,0
1664555632.191,-21.484,-7.324,-3.906,-50.293,0
1664555632.195,-51.270,-13.184,-7.812,-91.309,0
1664555632.199,-42.480,-78.613,-12.695,-62.012,0
1664555632.203,-16.113,-43.945,-13.184,-38.086,0
1664555632.206,-19.531,12.207,-14.648,-59.082,0
1664555632.210,-46.875,-13.184,-12.207,-99.609,0
1664555632.214,-53.223,-49.316,-8.789,-97.168,0
1664555632.218,-23.438,-27.832,-9.277,-55.176,0
1664555632.222,-20.508,12.207,-14.160,-58.594,0
1664555632.239,-36.621,-8.301,-17.090,-80.566,0
1664555632.243,-54.688,-29.785,-18.555,-102.539,0
1664555632.247,-31.250,-6.836,-16.602,-73.730,0
1664555632.251,0.000,2.930,-14.648,-48.828,0
1664555632.255,-7.812,-24.414,-17.090,-65.918,0
1664555632.259,-46.875,-52.246,-17.578,-94.238,0
1664555632.263,-26.367,-17.090,-19.531,-74.219,0
1664555632.266,0.000,6.348,-24.902,-47.363,0
1664555632.270,9.766,-36.621,-21.484,-36.133,0
1664555632.274,-13.184,-52.734,-5.859,-61.035,0
1664555632.278,-44.434,5.371,-7.812,-93.750,0
1664555632.282,-19.531,-7.324,-19.043,-69.824,0
1664555632.284,-20.996,-39.551,-13.672,-66.895,0
1664555632.288,-60.059,-32.715,-14.648,-111.328,0
1664555632.292,-72.754,-28.320,-15.625,-121.582,0
1664555632.296,-50.293,-17.090,-9.766,-83.496,0
1664555632.300,-32.227,-18.066,-5.371,-75.195,0
1664555632.304,-46.875,-43.945,-10.254,-98.633,0
1664555632.308,-77.637,-19.043,-14.648,-123.047,0
1664555632.311,-47.363,16.602,-12.207,-87.402,0
1664555632.315,-15.625,-57.617,-14.648,-43.945,0
1664555632.319,-26.367,-53.711,-16.113,-61.035,0
1664555632.323,-65.918,25.879,-15.625,-114.258,0
1664555632.327,-55.664,-3.906,-13.672,-89.355,0
1664555632.330,-22.949,-19.043,-16.602,-52.246,0
1664555632.334,-26.855,0.000,-15.137,-60.059,0
1664555632.338,-60.547,-15.137,-12.207,-95.215,0
1664555632.342,-62.988,-36.621,-15.137,-94.238,0
1664555632.346,-33.203,-27.832,-17.578,-51.758,0
1664555632.350,-22.949,-31.738,-19.531,-41.504,0
1664555632.354,-49.805,-19.043,-19.531,-74.707,0
1664555632.357,-72.266,-26.855,-18.066,-93.750,0
1664555632.361,-21.973,-48.340,-15.625,-43.457,0
1664555632.365,-1.465,7.812,-11.719,-40.039,0
1664555632.369,-22.949,15.625,-14.160,-74.219,0
1664555632.373,-47.363,-32.715,-16.113,-92.285,0
1664555632.374,-32.715,-22.949,-12.695,-59.570,0
1664555632.378,-10.254,2.441,-16.602,-39.062,0
1664555632.382,-12.207,-31.250,-14.648,-48.828,0
1664555632.386,-45.898,-42.969,-13.672,-77.148,0
1664555632.390,-51.270,-18.555,-17.090,-66.406,0
1664555632.394,-16.113,-23.438,-16.113,-32.715,0
1664555632.398,-7.324,-27.344,-16.113,-40.039,0
1664555632.401,-33.203,-75.684,-15.625,-62.500,0
1664555632.405,-45.898,-50.293,-15.625,-71.777,0
1664555632.409,-19.531,34.180,-16.113,-52.734,0
1664555632.413,-2.930,2.441,-17.578,-40.039,0
1664555632.417,-32.227,-17.090,-16.113,-71.289,0
1664555632.420,-70.801,-4.883,-17.090,-101.562,0
1664555632.424,-48.340,-12.695,-19.531,-67.383,0
1664555632.428,-25.879,-35.645,-13.184,-45.410,0
1664555632.432,-45.410,-41.016,-17.090,-79.102,0
1664555632.436,-79.102,-27.344,-21.484,-119.141,0
1664555632.440,-55.664,-36.133,-19.531,-86.914,0
1664555632.444,-29.297,-43.457,-19.043,-53.223,0
1664555632.447,-33.691,-61.035,-21.973,-60.547,0
1664555632.451,-68.848,-6.836,-22.949,-113.770,0
1664555632.455,-69.336,16.602,-20.508,-117.676,0
1664555632.459,-24.414,-33.203,-17.090,-63.965,0
1664555632.463,-10.254,-36.621,-14.160,-66.895,0
1664555632.479,-39.551,-9.766,-20.020,-107.422,0
1664555632.483,-55.176,-11.719,-15.137,-106.445,0
1664555632.487,-19.531,-45.410,-7.812,-54.199,0
1664555632.491,-6.836,-35.645,-17.090,-49.316,0
1664555632.495,-30.273,-21.484,-20.508,-88.867,0
1664555632.499,-48.340,-39.062,-17.090,-106.445,0
1664555632.503,-11.230,-65.430,-21.484,-62.500,0
1664555632.506,5.859,-40.527,-22.461,-45.898,0
1664555632.510,-9.277,28.809,-19.531,-92.285,0
1664555632.514,-34.180,-7.812,-19.531,-122.559,0
1664555632.518,-16.113,-17.578,-21.973,-96.191,0
1664555632.522,15.137,4.395,-21.484,-66.895,0
1664555632.509,8.789,3.418,-20.996,-77.148,0
1664555632.513,-31.738,-28.320,-16.602,-107.910,0
1664555632.517,-37.109,-41.016,-14.648,-98.145,0
1664555632.521,-6.836,-1.465,-19.043,-65.918,0
1664555632.525,-5.371,-4.395,-17.090,-67.383,0
1664555632.529,-31.738,-52.246,-14.648,-93.262,0
1664555632.533,-49.316,-46.875,-14.648,-104.980,0
1664555632.536,-16.602,5.371,-12.207,-75.195,0
1664555632.540,-8.301,15.625,-13.184,-76.660,0
1664555632.544,-20.996,-45.410,-13.184,-92.773,0
1664555632.548,-44.434,-76.172,-18.555,-106.934,0
1664555632.552,-28.320,-6.348,-23.438,-90.332,0
1664555632.554,7.812,-4.883,-17.578,-60.059,0
1664555632.558,-2.930,-25.391,-14.648,-74.219,0
1664555632.562,-39.551,-26.855,-19.531,-114.746,0
1664555632.566,-19.531,-8.301,-27.832,-98.145,0
1664555632.570,19.531,4.395,-11.230,-56.641,0
1664555632.574,0.977,-69.824,0.977,-58.594,0
1664555632.578,-56.641,-70.312,-4.883,-115.723,0
1664555632.581,-47.363,6.348,-3.418,-130.371,0
1664555632.585,-2.930,-16.602,-1.953,-76.660,0
1664555632.589,-20.020,-49.805,3.906,-69.336,0
1664555632.593,-48.828,-36.133,2.441,-116.211,0
1664555632.597,-68.359,-27.832,0.488,-142.090,0
1664555632.614,-37.109,-51.758,5.371,-91.797,0
1664555632.618,-7.812,-60.059,6.348,-70.312,0
1664555632.622,-16.113,-53.223,8.301,-91.309,0
1664555632.626,-47.852,-37.109,5.859,-120.117,0
1664555632.630,-27.832,-46.387,2.441,-85.938,0
1664555632.634,15.137,-70.801,3.418,-44.434,0
1664555632.638,14.160,-36.133,0.000,-69.824,0
1664555632.641,-19.043,-6.836,-1.465,-113.281,0
1664555632.645,-2.441,-46.875,-4.395,-82.520,0
1664555632.649,23.926,-68.848,-4.395,-35.645,0
1664555632.653,5.371,-18.066,-4.395,-54.688,0
1664555632.657,-23.926,-23.438,-6.836,-107.422,0
1664555632.660,-31.738,-59.082,-8.789,-110.352,0
1664555632.664,-6.348,-47.363,-6.836,-68.848,0
1664555632.668,4.395,-38.574,-0.488,-62.012,0
1664555632.672,-17.578,-49.805,-5.371,-91.309,0
1664555632.676,-31.250,-48.340,-8.301,-114.258,0
1664555632.680,0.488,-56.641,-7.324,-81.543,0
1664555632.684,14.648,-49.805,-8.789,-68.359,0
1664555632.687,-5.371,-24.902,-12.207,-94.238,0
1664555632.691,-32.715,-95.703,-11.230,-98.633,0
1664555632.695,-4.883,-82.520,-6.836,-68.848,0
1664555632.699,25.391,-2.930,-2.930,-45.410,0
1664555632.703,32.227,-41.992,6.836,-39.551,0
1664555632.705,-8.301,-43.457,-0.977,-86.914,0
1664555632.709,8.301,-21.973,-7.324,-77.637,0
1664555632.713,52.246,-17.578,-4.883,-20.508,0
1664555632.717,44.922,-36.621,-6.836,-20.996,0
1664555632.721,1.953,-48.340,-8.301,-60.059,0
1664555632.725,-20.996,-46.387,-6.836,-68.848,0
1664555632.729,39.062,-25.879,-12.207,-34.668,0
1664555632.732,62.988,-40.039,-11.719,-23.926,0
1664555632.736,29.297,-62.988,-14.160,-43.945,0
1664555632.740,-17.090,-7.324,-17.578,-86.426,0
1664555632.744,16.602,4.395,-9.766,-63.477,0
1664555632.748,50.781,-41.992,-16.602,-26.367,0
1664555632.750,34.180,-33.203,-20.996,-57.617,0
1664555632.754,-19.043,-10.254,-22.949,-112.305,0
1664555632.758,-61.035,-53.223,-18.555,-106.445,0
1664555632.762,-1.953,-71.289,-10.742,-64.453,0
1664555632.766,57.617,-42.480,-24.414,-42.480,0
1664555632.770,37.109,-37.109,-28.809,-73.730,0
1664555632.774,0.000,-28.320,-9.277,-79.102,0
1664555632.777,7.324,-66.406,-23.926,-55.664,0
1664555632.781,-39.062,-79.102,-36.133,-34.668,0
1664555632.785,-52.246,-1.953,-20.508,-97.656,0
1664555632.789,-80.566,-9.277,-30.273,-190.430,0
1664555632.793,-46.875,-40.527,-14.160,-66.406,0
1664555632.795,103.516,-11.719,7.812,87.891,0
1664555632.799,-53.223,0.488,-14.648,-29.785,0
1664555632.803,-124.023,-31.250,-25.879,-163.574,0
1664555632.807,22.461,-28.320,-39.551,-129.883,0
1664555632.811,-36.133,-18.555,-34.668,-76.660,0
1664555632.815,-24.902,-62.500,-2.930,-66.895,0
1664555632.819,-75.684,-7.812,-48.828,-253.906,0
1664555632.822,-71.777,-63.965,-49.805,-111.816,0
1664555632.826,-7.324,-52.734,-20.996,41.016,0
1664555632.830,56.152,-26.367,0.000,37.598,0
1664555632.834,-43.457,9.766,20.508,-55.176,0
1664555632.838,-172.363,11.719,-47.852,-188.477,0
1664555632.840,20.996,-59.082,-31.250,69.336,0
1664555632.844,53.223,-2.441,9.766,177.734,0
1664555632.848,35.645,-62.012,-8.789,-78.125,0
1664555632.852,-21.484,-66.895,-19.043,-54.199,0
1664555632.856,-41.504,19.531,-39.551,111.328,0
1664555632.860,89.844,-61.035,13.184,-34.668,0
1664555632.864,-165.039,-107.910,6.836,-46.387,0
1664555632.867,-81.543,-62.500,14.160,84.473,0
1664555632.871,243.652,19.043,36.133,-38.574,0
1664555632.875,197.754,-13.184,-20.996,-57.617,0
1664555632.879,88.379,-41.504,31.250,84.473,0
1664555632.883,13.672,-47.852,-13.672,-11.230,0
1664555632.885,80.566,-68.848,-32.227,157.715,0
1664555632.889,145.996,-1.465,-71.777,155.762,0
1664555632.893,173.340,-23.438,-88.867,-24.414,0
1664555632.897,108.398,-58.105,-11.230,64.453,0
1664555632.901,40.527,3.906,-9.277,-127.930,0
1664555632.905,29.297,-19.043,10.742,-302.246,0
1664555632.909,126.953,-120.605,5.859,190.430,0
1664555632.912,197.266,-76.660,5.371,302.734,0
1664555632.916,143.555,-52.246,16.113,38.574,0
1664555632.920,166.504,-9.277,-65.918,56.152,0
1664555632.924,144.531,-4.395,-64.941,127.930,0
1664555632.928,182.129,-17.578,-28.809,53.223,0
1664555632.929,72.754,18.555,-54.199,-183.105,0
1664555632.933,72.754,-30.762,-58.594,70.312,0
1664555632.937,170.898,-85.449,21.973,115.723,0
1664555632.941,137.207,-49.316,0.488,41.016,0
1664555632.945,4.883,-26.367,-8.301,174.316,0
1664555632.949,-0.488,-108.887,-23.438,-26.855,0
1664555632.953,95.215,-77.637,-73.242,-60.059,0
1664555632.956,63.965,33.203,-58.105,68.848,0
1664555632.960,64.453,-21.484,-26.855,71.289,0
1664555632.964,6.348,-80.078,-3.906,10.254,0
1664555632.968,3.906,-39.062,-36.133,138.672,0
1664555632.972,19.043,-17.578,-56.152,131.348,0
1664555632.989,-3.418,-92.285,-6.836,59.570,0
1664555632.993,-58.105,-85.449,-28.320,-18.066,0
1664555632.997,-110.352,42.480,-77.148,-82.031,0
1664555633.001,-27.344,-21.973,-48.828,39.551,0
1664555633.005,3.906,-116.211,-4.395,72.266,0
1664555633.009,-101.562,-111.328,-19.531,-105.957,0
1664555633.013,-41.016,-87.402,-54.199,-0.488,0
1664555633.016,-43.457,-51.758,-54.688,144.043,0
1664555633.020,-122.559,-75.684,-33.691,45.410,0
1664555633.024,-260.254,-59.082,-62.988,-129.395,0
1664555633.028,-238.281,1.465,-68.359,-98.633,0
1664555633.032,-65.918,-23.926,-24.414,66.895,0
1664555633.034,-124.512,-50.293,-30.273,44.434,0
1664555633.038,-212.891,-56.152,-34.180,-34.668,0
1664555633.042,-198.730,-64.941,-23.438,-50.781,0
1664555633.046,-149.414,-62.500,-22.461,5.859,0
1664555633.050,-197.266,-36.133,-33.203,-0.977,0
1664555633.054,-242.188,-49.316,-34.180,-51.758,0
1664555633.058,-282.715,-38.086,-45.898,-106.445,0
1664555633.061,-247.070,-2.441,-50.293,-91.797,0
1664555633.065,-179.199,-58.594,-40.039,-38.574,0
1664555633.069,-229.980,-44.922,-46.387,-61.035,0
1664555633.073,-283.691,38.086,-57.129,-134.766,0
1664555633.077,-242.676,6.836,-51.758,-109.863,0
1664555633.080,-194.824,-3.906,-45.410,-67.871,0
1664555633.084,-184.082,25.879,-39.062,-73.242,0
1664555633.088,-207.031,29.297,-31.738,-110.352,0
1664555633.092,-215.820,0.488,-35.156,-113.281,0
1664555633.096,-190.918,-10.742,-37.598,-64.453,0
1664555633.100,-189.453,-1.953,-35.645,-58.594,0
1664555633.104,-228.027,21.973,-32.715,-101.074,0
1664555633.107,-262.207,9.766,-34.668,-116.699,0
1664555633.111,-245.117,-18.066,-35.156,-64.453,0
1664555633.115,-254.395,45.898,-26.855,-61.523,0
1664555633.119,-289.062,41.992,-23.926,-99.609,0
1664555633.123,-329.102,0.488,-23.438,-120.605,0
1664555633.125,-323.730,27.832,-20.996,-95.215,0
1664555633.129,-319.336,50.781,-20.020,-80.566,0
1664555633.133,-336.914,10.254,-12.695,-92.773,0
1664555633.137,-371.582,-2.930,-10.254,-127.441,0
1664555633.141,-366.211,27.344,-12.695,-125.977,0
1664555633.145,-333.984,9.766,-14.648,-92.285,0
1664555633.149,-321.289,4.883,-18.555,-95.215,0
1664555633.152,-338.867,-35.156,-20.020,-122.559,0
1664555633.156,-342.773,-16.113,-8.301,-128.418,0
1664555633.160,-297.852,59.082,-3.418,-108.398,0
1664555633.164,-279.785,24.414,-6.348,-95.703,0
1664555633.168,-289.551,2.930,-9.277,-121.094,0
1664555633.169,-289.062,6.348,-11.719,-147.949,0
1664555633.173,-231.934,9.277,-6.348,-103.027,0
1664555633.177,-190.918,14.648,-7.812,-76.660,0
1664555633.181,-197.266,6.836,-9.277,-92.773,0
1664555633.185,-223.633,-4.395,-14.648,-121.094,0
1664555633.189,-188.477,-5.371,-10.742,-90.820,0
1664555633.193,-148.926,-1.953,-3.906,-56.152,0
1664555633.196,-151.367,-31.250,-10.254,-62.012,0
1664555633.200,-179.688,10.742,-10.742,-104.004,0
1664555633.204,-164.551,34.668,-3.906,-108.887,0
1664555633.208,-109.375,-2.441,0.488,-59.082,0
1664555633.212,-89.844,-8.301,-2.441,-55.176,0
1664555633.214,-100.098,8.301,-2.441,-95.703,0
1664555633.218,-91.797,-2.441,2.441,-105.469,0
1664555633.222,-43.457,-28.809,0.977,-63.477,0
1664555633.226,-19.531,-32.715,-8.301,-50.781,0
1664555633.230,-33.691,-16.113,-16.113,-89.355,0
1664555633.234,-58.594,-14.648,-19.531,-118.652,0
1664555633.238,-20.996,-62.988,-15.137,-64.941,0
1664555633.241,3.906,-42.480,-11.719,-39.062,0
1664555633.245,-3.906,37.598,-12.695,-81.055,0
1664555633.249,-20.508,4.395,-11.230,-108.887,0
1664555633.253,-1.465,-19.043,-7.812,-81.543,0
1664555633.257,32.227,-1.465,-6.348,-51.758,0
1664555633.259,37.109,3.906,-8.789,-51.758,0
1664555633.263,5.371,-17.090,-15.625,-81.543,0
1664555633.267,2.930,-29.297,-13.672,-76.660,0
1664555633.271,41.016,3.418,-10.742,-30.273,0
1664555633.275,54.199,0.977,-12.695,-29.785,0
1664555633.279,33.203,-42.969,-9.766,-61.523,0
1664555633.283,11.719,-62.012,-8.301,-66.895,0
1664555633.286,43.945,-3.906,-7.324,-35.156,0
1664555633.290,58.594,28.320,-2.930,-25.879,0
1664555633.294,44.922,-22.461,-4.395,-38.574,0
1664555633.298,14.160,-34.180,-9.766,-76.172,0
1664555633.302,29.785,5.371,-13.184,-66.895,0
1664555633.304,50.781,-0.488,-11.230,-36.621,0
1664555633.308,41.016,-34.668,-12.207,-40.039,0
1664555633.312,8.301,-43.457,-16.602,-78.125,0
1664555633.316,11.230,-8.789,-16.113,-74.707,0
1664555633.320,51.758,12.207,-8.301,-36.133,0
1664555633.324,48.828,-56.152,-5.859,-20.996,0
1664555633.328,1.953,-56.152,-6.348,-56.641,0
1664555633.331,-5.371,9.277,-5.371,-80.078,0
1664555633.335,38.086,-19.531,-8.301,-34.180,0
1664555633.339,55.664,-35.156,-11.719,-18.066,0
1664555633.343,17.090,-4.395,-18.066,-64.453,0
1664555633.347,-8.789,6.348,-16.602,-94.238,0
1664555633.364,39.062,-9.277,-5.371,-47.363,0
1664555633.368,53.711,-8.301,-7.324,-28.809,0
1664555633.372,28.320,0.000,-18.066,-60.059,0
1664555633.376,6.348,0.488,-14.648,-90.332,0
1664555633.380,33.691,-21.484,-5.371,-56.641,0
1664555633.384,61.523,-47.852,-10.254,-23.926,0
1664555633.388,46.387,-23.438,-20.996,-51.758,0
1664555633.391,10.254,3.418,-22.461,-98.145,0
1664555633.395,19.531,-29.297,-13.672,-73.242,0
1664555633.399,42.969,-64.941,-18.555,-26.367,0
1664555633.403,30.762,-16.113,-20.020,-41.504,0
1664555633.407,-7.324,9.277,-14.160,-82.031,0
1664555633.409,-28.809,-31.250,-24.902,-90.332,0
1664555633.413,5.859,-35.156,-21.484,-50.781,0
1664555633.417,16.602,-24.414,-13.672,-40.039,0
1664555633.421,-10.742,-23.438,-14.160,-76.660,0
1664555633.425,-31.250,-36.621,-20.996,-96.680,0
1664555633.429,11.719,-47.363,-20.020,-51.270,0
1664555633.433,22.949,-19.043,-8.301,-42.480,0
1664555633.436,-6.348,-10.742,-4.395,-77.148,0
1664555633.440,-25.391,-85.449,3.418,-84.961,0
1664555633.444,-14.160,-76.660,1.953,-58.594,0
1664555633.448,-0.488,1.465,0.977,-50.293,0
1664555633.452,7.324,-32.715,3.418,-51.758,0
1664555633.454,-23.438,-59.570,-1.953,-79.590,0
1664555633.458,-27.832,-27.832,-3.418,-73.242,0
1664555633.462,7.324,-12.695,-5.859,-44.434,0
1664555633.466,13.184,-32.715,-8.789,-40.527,0
1664555633.470,-16.113,-59.082,-10.742,-70.312,0
1664555633.474,-37.598,-62.012,-8.301,-84.961,0
1664555633.478,-9.277,-20.508,-3.418,-43.945,0
1664555633.481,14.160,-19.043,-2.441,-25.879,0
1664555633.485,-7.812,-69.336,-8.301,-40.527,0
1664555633.489,-44.434,-17.578,-14.160,-81.055,0
1664555633.493,-17.090,13.184,-16.113,-64.453,0
1664555633.497,5.371,-24.902,-14.648,-32.227,0
1664555633.515,-4.395,-23.926,-15.625,-48.828,0
1664555633.519,-40.527,-12.695,-15.137,-97.656,0
1664555633.523,-29.785,-37.598,-6.836,-74.219,0
1664555633.527,-2.441,-42.480,-7.812,-33.203,0
1664555633.531,-15.137,-27.832,-12.207,-49.805,0
1664555633.535,-53.711,-40.527,-17.090,-86.914,0
1664555633.539,-57.617,-26.855,-19.043,-83.496,0
1664555633.542,-20.508,-58.594,-19.531,-34.668,0
1664555633.546,-13.672,-54.199,-20.508,-30.762,0
1664555633.550,-42.480,14.648,-14.160,-81.055,0
1664555633.554,-57.129,-20.020,-12.695,-91.797,0
1664555633.558,-19.043,-26.855,-10.254,-44.434,0
1664555633.545,-2.930,4.395,-10.742,-31.250,0
1664555633.549,-20.020,-0.488,-13.184,-60.547,0
1664555633.553,-41.992,-32.227,-12.695,-82.520,0
1664555633.557,-19.043,-32.227,-15.625,-49.805,0
1664555633.561,2.930,-13.672,-15.137,-30.273,0
1664555633.565,1.465,-35.645,-13.672,-42.969,0
1664555633.569,-26.855,-61.523,-17.090,-69.824,0
1664555633.572,-20.020,-41.992,-14.160,-63.965,0
1664555633.576,8.789,-6.348,-13.672,-43.945,0
1664555633.580,1.465,-6.836,-16.602,-46.387,0
1664555633.584,-33.203,-50.781,-18.555,-75.195,0
1664555633.588,-36.621,-76.660,-20.996,-75.684,0
1664555633.603,-9.277,-2.930,-14.648,-45.898,0
1664555633.607,-5.859,2.930,-9.766,-37.598,0
1664555633.611,-27.344,-51.270,-15.137,-62.500,0
1664555633.615,-42.480,-37.109,-15.137,-88.379,0
1664555633.619,-10.742,0.977,-9.277,-55.664,0
1664555633.623,-1.465,-16.602,-10.742,-37.598,0
1664555633.627,-15.625,-72.754,-20.508,-49.805,0
1664555633.630,-37.109,-70.312,-29.297,-73.730,0
1664555633.634,-38.574,5.371,-19.531,-80.566,0
1664555633.638,-11.719,-11.719,-20.996,-55.664,0
1664555633.642,-2.441,-26.855,-9.766,-56.641,0
1664555633.646,-34.180,-18.555,-2.930,-91.309,0
1664555633.633,-23.926,-29.297,-8.789,-73.242,0
1664555633.637,2.441,-48.340,-2.441,-31.250,0
1664555633.641,5.859,-52.246,2.930,-24.414,0
1664555633.645,-25.879,-37.109,2.441,-66.406,0
1664555633.649,-42.480,-49.316,-5.859,-81.055,0
1664555633.653,-0.488,-70.312,-9.766,-25.391,0
1664555633.657,9.766,-50.781,-11.719,-10.254,0
1664555633.660,-16.113,-23.926,-8.789,-43.945,0
1664555633.664,-38.086,-27.344,-5.371,-67.871,0
1664555633.668,-7.812,-58.105,-6.348,-25.879,0
1664555633.672,0.977,-77.148,-9.766,-2.930,0
1664555633.676,-23.926,-10.742,-7.324,-49.316,0
1664555633.678,-52.734,-2.441,-6.348,-84.473,0
1664555633.682,-35.645,-42.969,-9.277,-50.781,0
1664555633.686,-13.672,-48.828,-10.742,-19.043,0
1664555633.690,-31.738,-22.949,-19.531,-42.480,0
1664555633.694,-65.918,-15.137,-20.996,-83.984,0
1664555633.698,-50.781,-85.449,-14.160,-51.758,0
1664555633.702,-20.020,-63.965,-17.090,-16.602,0
1664555633.705,-18.066,11.230,-13.672,-42.969,0
1664555633.709,-37.598,-22.949,-9.277,-72.754,0
1664555633.713,-61.523,-38.086,-18.555,-81.055,0
1664555633.717,-28.320,-13.184,-17.090,-42.969,0
1664555633.721,-5.859,-20.508,-13.184,-26.367,0
1664555633.738,-24.414,-48.340,-14.648,-53.223,0
1664555633.742,-52.734,-39.551,-16.602,-80.078,0
1664555633.746,-25.879,-18.066,-18.066,-45.410,0
1664555633.750,-7.324,-16.113,-15.625,-20.020,0
1664555633.754,-23.926,-43.945,-15.137,-37.109,0
1664555633.758,-48.828,-65.430,-11.719,-63.965,0
1664555633.762,-37.598,-37.109,-15.625,-48.828,0
1664555633.765,-14.160,-4.395,-15.137,-20.508,0
1664555633.769,-11.230,-37.109,-14.160,-20.020,0
1664555633.773,-41.016,-68.848,-18.555,-53.711,0
1664555633.777,-47.852,-9.766,-17.090,-70.801,0
1664555633.781,-14.160,-1.953,-20.020,-41.504,0
1664555633.784,1.953,-43.457,-16.602,-21.484,0
1664555633.788,-27.344,-49.805,-19.531,-58.594,0
1664555633.792,-50.293,-36.133,-19.531,-85.938,0
1664555633.796,-14.648,-39.551,-14.648,-41.992,0
1664555633.800,3.418,-38.574,-15.625,-21.973,0
1664555633.804,-18.066,-43.457,-12.207,-49.316,0
1664555633.808,-63.965,-30.762,-17.578,-98.145,0
1664555633.811,-39.062,-2.441,-19.531,-72.266,0
1664555633.815,-2.930,-71.289,-18.066,-20.020,0
1664555633.819,-17.578,-65.430,-18.555,-40.527,0
1664555633.823,-55.176,11.719,-14.648,-95.215,0
1664555633.827,-47.363,-20.996,-11.719,-70.801,0
1664555633.829,-14.160,-29.785,-11.719,-28.320,0
1664555633.833,-9.277,-12.207,-10.742,-27.832,0
1664555633.837,-44.434,-15.137,-15.137,-65.430,0
1664555633.841,-45.898,-32.227,-16.113,-65.918,0
1664555633.845,0.000,-40.039,-3.418,-12.695,0
1664555633.849,9.277,-27.832,-4.395,-6.836,0
1664555633.853,-21.484,-9.766,-14.160,-53.711,0
1664555633.856,-52.734,-23.926,-17.090,-73.242,0
1664555633.860,-21.973,-60.059,-16.602,-19.531,0
1664555633.864,-2.930,-4.395,-16.113,-14.160,0
1664555633.868,-15.137,12.695,-12.695,-43.945,0
1664555633.872,-39.551,-25.879,-10.742,-66.406,0
1664555633.874,-24.414,-26.367,-18.066,-45.410,0
1664555633.878,2.930,-2.441,-21.484,-16.602,0
1664555633.882,-1.953,-25.391,-18.066,-25.391,0
1664555633.886,-40.527,-45.410,-17.578,-65.430,0
1664555633.890,-33.691,-16.113,-18.555,-54.688,0
1664555633.894,-2.930,-20.508,-19.043,-8.789,0
1664555633.898,-11.719,-20.996,-24.414,-23.438,0
1664555633.901,-44.434,-66.895,-26.367,-54.688,0
1664555633.905,-65.918,-57.617,-28.320,-65.918,0
1664555633.909,-38.086,21.484,-23.926,-54.199,0
1664555633.913,-17.090,-7.324,-25.391,-30.273,0
1664555633.917,-39.551,-35.156,-29.297,-53.223,0
1664555633.934,-77.637,-20.508,-22.461,-93.750,0
1664555633.938,-52.734,-6.836,-18.555,-62.012,0
1664555633.942,-10.742,-24.414,-20.508,-26.367,0
1664555633.946,-26.855,-41.992,-23.438,-49.316,0
1664555633.950,-68.848,-23.438,-19.043,-87.891,0
1664555633.954,-43.945,-31.250,-18.066,-57.129,0
1664555633.958,-5.859,-43.945,-19.043,-16.602,0
1664555633.961,-5.859,-53.223,-18.066,-16.113,0
1664555633.965,-55.176,-35.156,-26.367,-68.848,0
1664555633.969,-56.641,-10.742,-27.344,-72.266,0
1664555633.973,-12.207,-28.809,-23.926,-25.879,0
1664555633.977,-6.836,-35.645,-28.320,-31.738,0
1664555633.979,-49.805,-12.695,-30.273,-71.777,0
1664555633.983,-63.477,-27.344,-27.344,-75.195,0
1664555633.987,-18.066,-53.223,-21.484,-28.809,0
1664555633.991,-19.531,-28.809,-24.414,-20.996,0
1664555633.995,-41.016,-10.742,-24.902,-50.293,0
1664555633.999,-65.430,-57.617,-22.461,-71.289,0
1664555634.003,-28.320,-56.641,-15.625,-23.438,0
1664555634.006,4.395,-23.438,-12.695,5.859,0
1664555634.010,-30.273,-15.625,-25.879,-38.574,0
1664555634.014,-73.730,-16.113,-27.832,-88.379,0
1664555634.018,-44.434,-62.988,-29.297,-41.992,0
1664555634.022,-8.789,-43.945,-32.715,2.930,0
1664555634.024,-14.160,30.762,-28.320,-28.809,0
1664555634.028,-39.062,-1.953,-28.809,-65.430,0
1664555634.032,-36.133,-12.207,-39.551,-59.570,0
1664555634.036,-4.883,17.578,-41.992,-28.320,0
1664555634.040,-6.348,1.953,-38.574,-30.273,0
1664555634.044,-34.668,-33.691,-42.480,-55.664,0
1664555634.048,-54.688,-24.414,-41.992,-73.730,0
1664555634.051,-28.809,6.348,-33.203,-42.480,0
1664555634.055,-10.742,20.508,-28.809,-27.832,0
1664555634.059,-15.137,-15.137,-29.297,-41.016,0
1664555634.063,-44.922,-55.176,-34.180,-54.199,0
1664555634.067,-32.227,7.324,-37.598,-37.598,0
1664555634.054,-4.883,18.066,-36.133,-18.066,0
1664555634.058,-12.695,-26.367,-32.227,-29.297,0
1664555634.062,-46.875,-43.457,-26.367,-61.523,0
1664555634.066,-49.805,-9.277,-29.785,-59.082,0
1664555634.070,-23.926,-0.488,-32.715,-22.461,0
1664555634.074,-20.508,-36.621,-28.320,-16.113,0
1664555634.078,-52.246,-17.090,-21.484,-62.500,0
1664555634.081,-60.059,7.324,-19.531,-75.684,0
1664555634.085,-22.949,2.441,-24.902,-39.062,0
1664555634.089,-0.977,-69.824,-28.320,-9.277,0
1664555634.093,-32.227,-70.312,-30.273,-37.598,0
1664555634.097,-66.406,8.789,-28.809,-87.891,0
1664555634.114,-20.508,-13.184,-29.297,-40.039,0
1664555634.118,4.395,-25.391,-31.738,-15.625,0
1664555634.122,-26.855,-21.484,-31.250,-53.711,0
1664555634.126,-63.965,-40.527,-32.227,-84.473,0
1664555634.130,-40.527,-46.387,-32.227,-47.363,0
1664555634.134,-17.578,-48.340,-33.203,-19.531,0
1664555634.138,-22.461,-18.555,-34.668,-39.062,0
1664555634.141,-46.387,9.277,-29.785,-78.613,0
1664555634.145,-48.828,-31.738,-31.738,-69.824,0
1664555634.149,-21.973,-49.316,-41.016,-28.809,0
1664555634.153,-27.832,7.324,-41.016,-41.992,0
1664555634.157,-61.035,0.977,-29.297,-76.172,0
1664555634.160,-72.754,-47.852,-25.391,-72.266,0
1664555634.164,-42.969,-30.273,-27.832,-40.527,0
1664555634.168,-27.832,-23.926,-28.320,-37.109,0
1664555634.172,-46.875,-29.785,-28.809,-68.359,0
1664555634.176,-82.520,-36.621,-31.738,-93.262,0
1664555634.180,-54.688,-40.527,-35.156,-60.059,0
1664555634.184,-25.879,-29.785,-35.156,-39.062,0
1664555634.187,-48.340,-31.738,-31.738,-64.453,0
1664555634.191,-82.031,-72.266,-30.762,-84.473,0
1664555634.195,-63.965,-66.406,-34.668,-54.199,0
1664555634.199,-36.621,7.324,-30.273,-41.016,0
1664555634.203,-31.250,-7.812,-20.020,-43.945,0
1664555634.220,-62.988,-27.344,-18.555,-78.613,0
1664555634.224,-63.965,-9.277,-20.020,-80.566,0
1664555634.228,-31.250,-16.602,-19.043,-38.086,0
1664555634.232,-28.809,-37.598,-23.438,-30.762,0
1664555634.236,-56.152,-56.641,-29.785,-67.871,0
1664555634.240,-73.730,-61.523,-32.227,-79.102,0
1664555634.244,-42.969,-27.832,-33.203,-44.922,0
1664555634.247,-20.996,-35.645,-26.367,-31.250,0
1664555634.251,-41.016,-82.520,-33.203,-50.293,0
1664555634.255,-79.590,-26.855,-41.016,-97.656,0
1664555634.259,-44.434,5.859,-31.250,-68.359,0
1664555634.263,-7.812,-35.156,-25.879,-23.438,0
1664555634.249,-28.809,-41.504,-28.809,-47.363,0
1664555634.253,-71.777,-22.461,-36.621,-100.098,0
1664555634.257,-54.688,-46.875,-32.715,-66.406,0
1664555634.261,-28.320,-53.711,-33.691,-22.949,0
1664555634.265,-28.320,-33.203,-37.109,-38.086,0
1664555634.269,-63.477,-45.410,-41.016,-78.125,0
1664555634.273,-74.219,-44.922,-38.574,-76.660,0
1664555634.276,-28.320,-52.246,-32.715,-24.414,0
1664555634.280,-17.578,-20.508,-32.715,-28.809,0
1664555634.284,-50.293,0.000,-30.762,-82.031,0
1664555634.288,-66.895,-28.320,-27.832,-99.609,0
1664555634.292,-24.902,-81.055,-33.691,-37.109,0
1664555634.294,-12.207,-58.594,-41.016,-20.996,0
1664555634.298,-37.109,0.488,-42.480,-65.430,0
1664555634.302,-65.918,-50.293,-38.574,-88.379,0
1664555634.306,-44.434,-41.504,-34.668,-54.199,0
1664555634.310,-17.090,-20.508,-30.273,-24.414,0
1664555634.314,-28.320,-46.875,-26.855,-42.480,0
1664555634.318,-63.965,-58.105,-32.715,-77.637,0
1664555634.321,-62.012,-72.266,-38.574,-58.105,0
1664555634.325,-42.969,-26.367,-42.480,-38.574,0
1664555634.329,-36.621,-4.883,-36.133,-44.434,0
1664555634.333,-59.082,-48.340,-29.785,-71.289,0
1664555634.337,-64.453,-48.828,-35.645,-77.637,0
1664555634.340,-33.691,-35.156,-39.551,-36.133,0
1664555634.344,-22.949,-30.273,-32.227,-23.926,0
1664555634.348,-40.039,-53.711,-32.227,-46.875,0
1664555634.352,-64.941,-51.758,-36.621,-72.754,0
1664555634.356,-33.691,-16.602,-31.738,-34.668,0
1664555634.360,-22.461,-29.297,-32.227,-27.344,0
1664555634.364,-55.176,-80.566,-41.992,-58.594,0
1664555634.367,-78.125,-66.895,-48.340,-80.566,0
1664555634.371,-62.500,21.484,-49.805,-88.867,0
1664555634.375,-26.367,-2.441,-43.457,-47.363,0
1664555634.379,-12.207,-37.598,-39.062,-30.762,0
1664555634.383,-58.105,-29.297,-41.016,-80.078,0
1664555634.384,-55.176,-12.695,-41.016,-72.754,0
1664555634.388,-12.695,-23.926,-33.691,-28.809,0
1664555634.392,-15.137,-43.945,-32.715,-30.273,0
1664555634.396,-51.270,-35.645,-39.062,-71.289,0
1664555634.400,-72.266,-19.531,-41.504,-92.285,0
1664555634.404,-31.738,-36.133,-28.320,-39.062,0
1664555634.408,-12.207,-63.477,-26.855,-12.207,0
1664555634.411,-47.363,-25.391,-38.086,-58.105,0
1664555634.415,-78.125,0.977,-39.062,-99.121,0
1664555634.419,-43.457,-36.621,-40.039,-55.664,0
1664555634.423,-17.578,-37.109,-38.574,-33.691,0
1664555634.427,-31.250,-14.160,-33.203,-62.988,0
1664555634.444,-72.266,-28.809,-38.574,-101.562,0
1664555634.448,-54.199,-44.434,-38.086,-66.895,0
1664555634.452,-23.926,-56.641,-41.016,-21.973,0
1664555634.456,-31.738,-33.203,-42.969,-45.898,0
1664555634.460,-62.988,-24.902,-37.109,-90.332,0
1664555634.464,-58.594,-79.102,-36.621,-63.965,0
1664555634.468,-22.949,-73.730,-33.203,-25.879,0
1664555634.471,-26.855,-14.160,-31.250,-44.922,0
1664555634.475,-56.152,-11.230,-32.227,-75.684,0
1664555634.479,-65.918,-50.781,-30.762,-78.613,0
1664555634.483,-30.762,-26.367,-29.297,-52.246,0
1664555634.487,-12.207,0.488,-29.785,-45.410,0
1664555634.490,-22.461,-28.320,-25.879,-62.988,0
1664555634.494,-52.246,-52.734,-28.320,-88.379,0
1664555634.498,-25.879,-30.762,-31.738,-54.199,0
1664555634.502,10.254,-8.301,-28.809,-22.949,0
1664555634.506,7.812,-28.809,-27.832,-41.016,0
1664555634.510,-25.879,-61.523,-32.227,-76.660,0
1664555634.514,-18.066,-37.598,-28.809,-61.523,0
1664555634.517,11.230,-19.531,-27.344,-33.691,0
1664555634.521,1.465,-53.223,-32.715,-42.480,0
1664555634.525,-31.738,-72.754,-33.691,-71.289,0
1664555634.529,-38.574,-10.742,-37.109,-77.637,0
