timestamps,TP9,AF7,AF8,TP10,marker
1664550806.727,-14.648,7.324,-333.496,-29.785,0
1664550806.731,-18.555,4.883,-322.266,-31.738,0
1664550806.735,-21.973,7.812,-364.746,-44.434,0
1664550806.739,-14.648,13.184,-349.121,-46.875,0
1664550806.743,-8.789,-3.418,-387.207,-29.785,0
1664550806.747,-13.184,-22.949,-454.590,-21.484,0
1664550806.751,-23.438,-8.789,-421.387,-31.250,0
1664550806.754,-20.020,8.301,-361.816,-32.715,0
1664550806.758,-8.301,-3.906,-404.785,-16.113,0
1664550806.762,-7.812,-22.949,-491.211,-12.207,0
1664550806.766,-7.324,8.301,-355.957,-26.367,0
1664550806.770,-10.254,10.742,-310.059,-34.180,0
1664550806.772,-16.113,-31.738,-445.801,-23.926,0
1664550806.776,-18.066,-21.484,-492.188,-9.766,0
1664550806.780,-10.742,18.555,-345.703,-13.672,0
1664550806.784,-21.973,9.277,-339.355,-42.480,0
1664550806.788,-25.879,-6.836,-410.156,-42.480,0
1664550806.792,-21.484,-6.348,-446.777,-14.648,0
1664550806.796,-18.066,1.953,-412.109,-12.207,0
1664550806.799,-0.488,9.766,-385.254,-21.973,0
1664550806.803,-9.277,-14.648,-492.676,-6.348,0
1664550806.807,-20.020,1.465,-473.145,0.977,0
1664550806.811,-7.324,40.039,-308.594,-10.254,0
1664550806.815,-4.395,7.324,-357.422,-17.578,0
1664550806.817,-12.695,-0.977,-354.492,-25.879,0
1664550806.821,-7.324,15.137,-326.172,-19.043,0
1664550806.825,4.883,15.137,-321.777,-14.648,0
1664550806.829,-7.812,4.395,-361.328,-18.555,0
1664550806.833,-17.090,-9.277,-436.523,-18.066,0
1664550806.837,-12.695,-0.977,-455.566,-7.324,0
1664550806.841,0.000,23.438,-359.863,-2.441,0
1664550806.844,5.859,3.906,-409.180,-9.766,0
1664550806.848,5.859,-11.230,-521.484,-14.648,0
1664550806.852,3.906,30.273,-392.578,-21.484,0
1664550806.856,-4.395,14.160,-390.137,-21.973,0
1664550806.860,-7.812,6.836,-397.461,-19.043,0
1664550806.862,-21.484,22.461,-364.746,-32.227,0
1664550806.866,-14.160,20.996,-345.703,-28.809,0
1664550806.870,-5.859,9.766,-350.586,-10.742,0
1664550806.874,-14.160,4.395,-343.750,-16.113,0
1664550806.878,-13.184,9.277,-340.820,-23.926,0
1664550806.882,-9.766,-2.441,-405.762,-28.809,0
1664550806.886,-3.418,-4.395,-400.879,-25.879,0
1664550806.889,-5.371,-25.879,-516.602,-12.695,0
1664550806.893,-7.812,-2.441,-483.398,-14.648,0
1664550806.897,2.930,31.738,-277.344,-36.621,0
1664550806.901,-8.301,-5.371,-306.641,-32.715,0
1664550806.905,-20.508,-19.043,-330.566,-15.137,0
1664550806.909,-19.043,-18.555,-356.445,-27.832,0
1664550806.913,-17.578,-9.766,-340.332,-38.574,0
1664550806.917,-16.113,-13.672,-326.660,-32.227,0
1664550806.921,-12.207,-26.855,-339.844,-24.902,0
1664550806.925,-1.953,-12.695,-329.102,-20.020,0
1664550806.929,2.441,-17.578,-364.258,-15.137,0
1664550806.933,14.160,-20.508,-420.898,-5.371,0
1664550806.936,10.742,-6.836,-439.453,7.324,0
1664550806.940,-12.695,16.602,-330.566,-9.277,0
1664550806.944,-20.996,2.930,-307.617,-24.902,0
1664550806.948,-11.719,-39.062,-471.680,-16.602,0
1664550806.952,1.953,-28.320,-497.070,0.977,0
1664550806.952,11.719,6.348,-334.473,7.324,0
1664550806.956,16.602,-6.836,-359.375,-1.465,0
1664550806.960,19.531,-35.645,-435.059,-3.418,0
1664550806.964,14.160,-18.066,-422.852,-2.441,0
1664550806.968,20.508,4.883,-389.160,1.465,0
1664550806.972,27.832,-5.859,-395.996,4.883,0
1664550806.976,15.625,-41.016,-528.809,1.465,0
1664550806.979,4.883,-27.344,-549.805,6.348,0
1664550806.983,-2.930,36.621,-302.246,0.977,0
1664550806.987,2.441,8.789,-337.402,-4.883,0
1664550806.991,0.000,-6.836,-387.695,-14.648,0
1664550806.995,2.441,9.766,-365.234,-16.113,0
1664550806.997,10.742,12.695,-337.402,-9.277,0
1664550807.001,6.836,0.488,-337.402,-6.348,0
1664550807.005,0.000,-8.301,-363.770,-4.395,0
1664550807.009,-4.395,6.348,-330.078,-11.719,0
1664550807.013,-1.465,6.836,-328.613,-20.020,0
1664550807.017,6.836,-14.160,-407.227,-13.184,0
1664550807.021,3.906,-15.625,-436.523,-1.953,0
1664550807.024,8.301,10.254,-378.418,1.465,0
1664550807.028,5.859,27.832,-316.895,-0.977,0
1664550807.032,6.836,-4.395,-440.918,2.441,0
1664550807.036,6.348,-9.277,-502.930,5.371,0
1664550807.040,4.883,34.180,-318.359,-21.973,0
1664550807.042,-4.395,22.461,-314.453,-26.855,0
1664550807.046,-4.395,-3.418,-348.633,-6.836,0
1664550807.050,3.418,2.441,-355.469,-9.766,0
1664550807.054,-11.719,14.160,-334.473,-24.414,0
1664550807.058,-24.902,-1.953,-365.234,-33.691,0
1664550807.062,-22.949,-17.578,-416.504,-31.250,0
1664550807.066,-11.230,-14.160,-429.199,-21.973,0
1664550807.069,-6.836,4.883,-396.973,-24.414,0
1664550807.073,-6.348,16.602,-363.281,-27.832,0
1664550807.077,-12.695,4.395,-417.480,-15.625,0
1664550807.081,-11.230,19.531,-387.207,-17.578,0
1664550807.085,-9.766,29.297,-338.379,-26.855,0
1664550807.103,-22.461,15.137,-335.938,-25.391,0
1664550807.107,-11.230,19.043,-335.449,-27.832,0
1664550807.111,-2.930,30.273,-354.492,-19.531,0
1664550807.115,-17.578,27.832,-345.215,-17.578,0
1664550807.119,-17.578,10.742,-378.418,-25.879,0
1664550807.123,-9.766,-3.906,-458.496,-26.855,0
1664550807.127,7.812,25.391,-400.391,-22.949,0
1664550807.130,4.395,53.223,-281.738,-20.996,0
1664550807.134,-17.578,14.648,-408.691,-26.855,0
1664550807.138,-22.461,-10.742,-518.066,-28.809,0
1664550807.142,-21.484,29.297,-350.098,-26.855,0
1664550807.146,-6.836,33.691,-320.312,-20.508,0
1664550807.147,-3.418,15.137,-334.961,-20.508,0
1664550807.151,-9.277,14.648,-363.281,-25.879,0
1664550807.155,-10.254,26.367,-339.844,-19.531,0
1664550807.159,-2.441,23.926,-305.176,-19.043,0
1664550807.163,-1.465,3.906,-409.180,-18.555,0
1664550807.167,-16.113,-4.395,-445.801,-31.250,0
1664550807.171,-2.930,7.812,-378.418,-38.574,0
1664550807.174,4.883,20.020,-325.195,-22.461,0
1664550807.178,1.465,-11.719,-449.707,-12.207,0
1664550807.182,-4.395,-1.953,-460.449,-20.020,0
1664550807.186,-15.137,37.109,-291.504,-30.273,0
1664550807.190,-12.695,0.488,-364.258,-22.461,0
1664550807.192,-7.812,-6.836,-378.906,-20.996,0
1664550807.196,-17.090,20.508,-311.035,-33.203,0
1664550807.200,-14.160,20.508,-305.664,-44.434,0
1664550807.204,-11.719,0.000,-360.352,-43.457,0
1664550807.208,-13.184,-3.906,-392.578,-36.133,0
1664550807.212,-14.648,6.836,-398.438,-34.180,0
1664550807.216,-9.277,26.367,-341.309,-40.527,0
1664550807.219,-4.883,9.277,-402.832,-34.180,0
1664550807.223,-0.488,-12.695,-521.484,-16.602,0
1664550807.227,4.395,34.180,-360.352,-23.438,0
1664550807.231,-9.277,34.180,-320.312,-30.273,0
1664550807.235,-10.742,4.395,-375.488,-20.996,0
1664550807.237,-0.977,15.625,-359.863,-12.207,0
1664550807.241,-9.766,26.367,-336.426,-4.883,0
1664550807.245,-5.371,-6.836,-403.809,-13.184,0
1664550807.249,-14.648,-3.418,-383.789,-28.809,0
1664550807.253,-17.090,12.207,-364.258,-23.926,0
1664550807.257,-7.812,3.418,-421.387,-20.020,0
1664550807.261,-5.859,15.137,-379.883,-30.273,0
1664550807.264,0.488,-18.066,-509.766,-19.043,0
1664550807.268,-5.371,-2.441,-524.902,-4.883,0
1664550807.272,-12.207,44.434,-312.500,-13.184,0
1664550807.276,-5.859,6.836,-354.492,-6.348,0
1664550807.280,-3.418,-0.488,-396.484,-9.277,0
1664550807.282,0.000,20.996,-349.609,-16.602,0
1664550807.286,14.160,19.043,-338.379,-5.859,0
1664550807.290,-1.465,0.977,-374.512,-6.348,0
1664550807.294,-12.695,-0.977,-404.785,-14.160,0
1664550807.298,-8.301,2.930,-374.512,-19.043,0
1664550807.302,-9.277,-3.906,-350.586,-13.672,0
1664550807.306,-6.836,-24.902,-432.129,-7.812,0
1664550807.309,-12.695,-22.949,-461.426,-17.578,0
1664550807.313,-11.230,24.414,-317.871,-20.508,0
1664550807.317,-8.789,14.160,-282.715,-12.207,0
1664550807.321,-12.695,-19.043,-349.609,-5.371,0
1664550807.325,-27.832,-14.648,-354.492,-16.602,0
1664550807.328,-27.344,2.441,-288.086,-34.668,0
1664550807.332,-12.207,-6.348,-310.059,-26.367,0
1664550807.336,-15.625,-20.996,-311.523,-20.996,0
1664550807.340,-19.531,-16.602,-309.570,-33.691,0
1664550807.344,-21.484,-14.648,-350.586,-47.852,0
1664550807.348,-25.879,-23.438,-362.305,-40.039,0
1664550807.352,-14.160,-55.664,-515.625,-13.184,0
1664550807.355,-17.090,-37.598,-554.199,-6.836,0
1664550807.359,-22.461,21.484,-356.445,-26.367,0
1664550807.363,-22.949,12.695,-329.102,-35.156,0
1664550807.367,-15.625,-4.883,-358.887,-29.785,0
1664550807.371,-14.160,3.906,-335.938,-28.320,0
1664550807.372,-19.043,4.395,-319.336,-26.367,0
1664550807.376,-17.578,-14.160,-354.492,-23.926,0
1664550807.380,-18.555,-14.648,-343.750,-17.090,0
1664550807.384,-13.184,0.488,-337.402,-19.531,0
1664550807.388,-13.184,-1.953,-351.562,-30.762,0
1664550807.392,-18.066,-25.879,-417.969,-27.832,0
1664550807.396,-15.625,-28.809,-474.121,-15.625,0
1664550807.399,-7.324,21.484,-334.961,-11.719,0
1664550807.403,-1.465,18.066,-313.965,-15.137,0
1664550807.407,-15.625,-17.090,-427.734,-26.855,0
1664550807.411,-23.926,-8.301,-416.504,-33.691,0
1664550807.415,-9.766,8.789,-319.336,-30.762,0
1664550807.433,-10.742,-2.930,-320.801,-20.996,0
1664550807.437,-20.996,-21.973,-356.445,-27.344,0
1664550807.441,-5.859,-12.695,-362.793,-36.621,0
1664550807.445,-1.953,3.906,-336.914,-24.414,0
1664550807.449,-13.184,-3.906,-354.004,-20.020,0
1664550807.453,-12.207,-28.809,-454.102,-17.090,0
1664550807.457,-11.719,-14.648,-441.895,-15.625,0
1664550807.460,-7.324,21.973,-333.008,-12.207,0
1664550807.464,-6.348,17.578,-287.598,-6.836,0
1664550807.468,-10.254,-9.277,-350.586,-13.672,0
1664550807.472,-18.555,-0.488,-344.238,-19.531,0
1664550807.476,-4.883,-1.953,-364.746,-18.555,0
1664550807.477,3.906,-13.672,-372.559,-12.207,0
1664550807.481,-5.859,-3.906,-355.957,-15.625,0
1664550807.485,-5.859,9.766,-369.629,-25.879,0
1664550807.489,-10.742,6.836,-344.727,-20.508,0
1664550807.493,-8.301,-9.766,-395.508,-8.301,0
1664550807.497,-9.277,-20.020,-464.844,-10.254,0
1664550807.501,-28.320,0.000,-379.395,-8.789,0
1664550807.504,-17.578,17.578,-299.805,-18.066,0
1664550807.508,-5.371,-19.531,-439.453,-19.043,0
1664550807.512,-10.742,-27.344,-463.867,-9.766,0
1664550807.516,-8.789,0.488,-342.773,-23.926,0
1664550807.520,-22.461,-6.348,-354.004,-34.180,0
1664550807.523,-30.273,-28.809,-421.387,-19.531,0
1664550807.527,-17.090,-32.227,-469.727,-2.441,0
1664550807.531,3.418,0.000,-343.750,-4.395,0
1664550807.535,15.137,0.000,-308.594,-16.602,0
1664550807.539,-5.371,-30.762,-395.508,-23.926,0
1664550807.543,-15.625,-35.645,-450.684,-20.020,0
1664550807.547,-13.672,-19.531,-417.969,-10.254,0
1664550807.550,-12.207,-10.254,-338.867,-15.137,0
1664550807.554,-3.418,-39.062,-471.191,-12.207,0
1664550807.558,-2.441,-28.320,-499.512,-3.906,0
1664550807.562,-6.348,9.277,-290.039,-6.348,0
1664550807.566,3.906,-16.602,-325.684,-13.672,0
1664550807.567,8.301,-21.484,-361.816,-26.855,0
1664550807.571,0.488,-8.301,-331.055,-11.719,0
1664550807.575,-2.930,-5.371,-302.246,-0.488,0
1664550807.579,-14.648,-29.297,-352.539,-12.695,0
1664550807.583,-5.371,-46.875,-394.531,-25.391,0
1664550807.587,-5.371,-34.180,-404.785,-16.602,0
1664550807.591,-12.207,-13.184,-344.238,-7.812,0
1664550807.594,5.859,-30.273,-378.906,-12.207,0
1664550807.598,-5.859,-52.734,-496.582,-13.672,0
1664550807.602,-17.578,-4.395,-338.379,-14.648,0
1664550807.606,-4.883,-4.883,-290.039,-10.254,0
1664550807.610,-21.973,-39.551,-374.512,-9.766,0
1664550807.613,-21.973,-35.645,-381.348,-17.578,0
1664550807.617,-9.277,-19.531,-333.496,-21.484,0
1664550807.621,-12.207,-27.344,-341.309,-10.254,0
1664550807.625,-6.348,-32.715,-355.469,-4.395,0
1664550807.629,0.488,-19.531,-367.676,-19.531,0
1664550807.633,-2.930,-26.367,-424.805,-21.973,0
1664550807.637,-4.883,-29.297,-398.926,-14.648,0
1664550807.640,-13.184,-53.711,-504.395,-1.465,0
1664550807.644,-18.555,-30.273,-506.348,-3.906,0
1664550807.648,-20.996,16.602,-317.383,-34.180,0
1664550807.652,-14.648,-20.508,-362.793,-27.832,0
1664550807.656,-3.906,-25.391,-365.723,-13.184,0
1664550807.669,-17.578,-8.789,-332.520,-25.879,0
1664550807.673,-22.461,-12.695,-329.590,-26.855,0
1664550807.677,-15.137,-27.832,-342.285,-15.137,0
1664550807.681,-20.508,-37.598,-356.934,-14.160,0
1664550807.685,-16.113,-30.762,-363.770,-16.602,0
1664550807.689,-17.090,-34.668,-391.113,-27.344,0
1664550807.693,-17.578,-50.781,-446.289,-34.180,0
1664550807.696,-8.789,-44.922,-465.332,-13.672,0
1664550807.700,-5.859,-5.859,-362.305,-9.766,0
1664550807.704,0.488,-15.625,-354.492,-19.531,0
1664550807.708,0.977,-32.227,-393.555,-20.996,0
1664550807.712,-2.441,-27.344,-393.066,-22.949,0
1664550807.703,-12.207,-22.461,-329.590,-22.461,0
1664550807.707,-14.160,-34.180,-355.469,-18.066,0
1664550807.711,-22.461,-43.457,-365.723,-20.508,0
1664550807.715,-14.648,-28.320,-310.059,-23.926,0
1664550807.719,5.859,-30.762,-357.422,-12.695,0
1664550807.723,-3.906,-49.805,-400.879,-14.160,0
1664550807.727,-18.066,-73.730,-495.605,-19.531,0
1664550807.730,-14.160,-52.246,-529.297,-21.973,0
1664550807.734,-20.996,-1.953,-335.449,-27.832,0
1664550807.738,-13.184,-14.648,-317.383,-25.879,0
1664550807.742,4.395,-26.855,-369.629,-30.762,0
1664550807.746,-12.207,-21.484,-357.422,-33.203,0
1664550807.747,-19.531,-8.789,-308.594,-20.996,0
1664550807.751,-15.137,-17.090,-336.426,-8.789,0
1664550807.755,-15.625,-26.367,-376.465,-15.625,0
1664550807.759,-20.508,-5.859,-331.543,-26.367,0
1664550807.763,-20.508,-7.324,-342.285,-28.809,0
1664550807.767,-6.836,-31.250,-439.941,-9.766,0
1664550807.771,-4.883,-34.180,-475.098,-7.812,0
1664550807.774,-11.719,9.766,-341.309,-19.043,0
1664550807.778,0.488,13.184,-299.805,-11.719,0
1664550807.782,-2.441,-14.160,-386.230,-0.977,0
1664550807.786,-13.184,-15.137,-401.367,-1.953,0
1664550807.790,-12.695,-7.812,-323.242,-20.020,0
1664550807.793,-16.113,-17.578,-342.773,-27.344,0
1664550807.797,-19.043,-36.133,-390.625,-9.277,0
1664550807.801,-15.625,-20.020,-376.465,2.441,0
1664550807.805,-8.301,-5.859,-346.680,-15.625,0
1664550807.809,-9.277,-18.555,-367.676,-25.391,0
1664550807.813,-5.859,-31.738,-453.125,-7.812,0
1664550807.817,-9.766,-19.043,-441.895,-9.277,0
1664550807.820,-16.113,-3.418,-381.836,-24.902,0
1664550807.824,-26.367,-7.812,-370.605,-32.715,0
1664550807.828,-22.949,-31.250,-454.102,-13.184,0
1664550807.832,-10.254,-14.648,-404.297,-3.906,0
1664550807.836,-6.836,4.883,-316.406,-27.344,0
1664550807.853,-1.465,-22.949,-360.352,-30.273,0
1664550807.857,-6.348,-30.762,-369.629,-19.531,0
1664550807.861,-6.836,-17.578,-343.750,-11.719,0
1664550807.865,-0.488,-21.484,-356.934,-7.812,0
1664550807.869,-1.465,-38.574,-420.410,-11.719,0
1664550807.873,-7.324,-39.062,-429.199,-21.973,0
1664550807.877,-3.906,-10.742,-370.117,-17.578,0
1664550807.880,2.441,7.324,-309.570,-9.766,0
1664550807.884,-6.348,-33.691,-445.312,-21.484,0
1664550807.888,-15.625,-36.621,-496.094,-27.344,0
1664550807.892,-14.648,17.090,-279.297,-19.531,0
1664550807.896,3.418,9.766,-277.832,-17.090,0
1664550807.897,8.789,-8.301,-336.426,-25.391,0
1664550807.901,-7.812,3.418,-355.469,-26.367,0
1664550807.905,-6.348,21.484,-314.941,-9.766,0
1664550807.909,3.906,17.090,-305.664,-4.395,0
1664550807.913,-0.488,-6.348,-390.137,-15.137,0
1664550807.917,-8.301,-4.395,-431.152,-18.066,0
1664550807.921,1.465,17.090,-369.629,-17.578,0
1664550807.924,7.812,19.531,-353.516,-15.137,0
1664550807.928,-0.977,-15.625,-523.926,-2.441,0
1664550807.932,-4.395,0.488,-489.746,-12.207,0
1664550807.936,-10.254,31.250,-313.965,-29.785,0
1664550807.940,-12.207,-0.977,-381.348,-12.695,0
1664550807.942,-0.488,7.812,-341.797,-7.812,0
1664550807.946,-9.277,19.531,-294.922,-22.461,0
1664550807.950,-14.160,9.277,-313.477,-32.227,0
1664550807.954,-6.836,-3.418,-364.258,-20.508,0
1664550807.958,-11.719,-2.441,-354.492,-10.254,0
1664550807.962,-9.766,-3.906,-381.348,-17.578,0
1664550807.966,-6.348,15.625,-368.652,-27.832,0
1664550807.969,1.953,15.137,-375.488,-20.508,0
1664550807.973,9.766,-11.230,-519.531,11.719,0
1664550807.977,5.371,33.691,-398.926,9.766,0
1664550807.981,0.000,41.016,-303.711,-16.113,0
1664550807.985,5.371,7.812,-359.375,-13.672,0
1664550807.987,11.719,12.207,-379.883,-3.906,0
1664550807.991,14.648,20.020,-329.102,-2.441,0
1664550807.995,-0.977,-0.977,-359.863,-6.836,0
1664550807.999,-28.809,-8.789,-358.398,-20.996,0
1664550808.003,-8.301,5.859,-334.473,-21.973,0
1664550808.007,5.859,-2.930,-393.555,-16.113,0
1664550808.011,-11.230,-9.277,-404.785,-27.832,0
1664550808.014,-18.066,-40.527,-548.828,-26.855,0
1664550808.018,-13.184,-22.949,-529.297,-9.277,0
1664550808.022,-13.184,29.785,-310.059,-6.836,0
1664550808.026,-19.043,0.488,-365.723,-10.254,0
1664550808.030,-13.672,-2.441,-382.324,-15.625,0
1664550808.032,-0.977,14.648,-338.379,-13.672,0
1664550808.036,5.371,12.207,-333.984,-10.742,0
1664550808.040,-6.348,-11.230,-368.652,-19.043,0
1664550808.044,-20.020,-18.555,-375.488,-24.414,0
1664550808.048,-15.137,-3.418,-352.539,-18.555,0
1664550808.052,-11.719,-14.648,-367.676,-4.395,0
1664550808.056,-11.230,-23.926,-401.367,-6.348,0
1664550808.059,-12.207,-28.809,-473.633,-12.207,0
1664550808.063,-11.230,13.184,-369.629,-19.043,0
1664550808.067,1.953,22.949,-318.359,-17.090,0
1664550808.071,5.371,-4.395,-391.602,-8.301,0
1664550808.075,-5.859,0.000,-386.230,-8.301,0
1664550808.077,-12.695,12.695,-323.242,-18.555,0
1664550808.081,-19.043,-3.906,-360.840,-17.090,0
1664550808.085,-15.137,-18.555,-382.812,-3.906,0
1664550808.089,-12.695,-0.977,-358.887,-11.719,0
1664550808.093,-18.555,1.465,-383.789,-16.113,0
1664550808.097,-14.160,-12.207,-399.414,-10.742,0
1664550808.101,-15.625,-39.551,-501.465,4.883,0
1664550808.104,-14.648,-22.949,-514.160,0.000,0
1664550808.108,-19.531,28.320,-301.270,-35.645,0
1664550808.112,-30.762,-1.465,-353.516,-38.574,0
1664550808.116,-15.625,-9.766,-420.410,-22.949,0
1664550808.120,-10.254,8.301,-338.867,-16.113,0
1664550808.122,-25.879,2.930,-329.102,-24.902,0
1664550808.126,-23.926,-9.766,-345.703,-29.785,0
1664550808.130,-14.160,-14.160,-370.605,-7.812,0
1664550808.134,-16.113,-8.789,-408.691,-2.930,0
1664550808.138,-13.184,3.418,-374.512,-18.555,0
1664550808.142,-9.277,-10.254,-421.387,-18.555,0
1664550808.146,-12.695,-21.973,-481.445,-5.859,0
1664550808.149,-10.742,24.414,-352.539,-9.766,0
1664550808.153,-13.672,25.391,-313.965,-25.879,0
1664550808.157,-19.043,1.465,-400.391,-25.879,0
1664550808.161,-13.672,3.418,-419.922,-22.461,0
1664550808.165,-6.836,14.648,-327.148,-15.625,0
1664550808.168,-1.465,9.766,-335.449,-16.113,0
1664550808.172,-3.418,0.488,-353.516,-21.484,0
1664550808.176,-7.324,14.160,-364.746,-20.020,0
1664550808.180,-2.441,34.180,-311.035,-11.230,0
1664550808.184,4.395,20.020,-343.262,-0.977,0
1664550808.188,-0.977,-10.742,-465.820,-4.883,0
1664550808.192,-13.184,10.254,-437.500,-20.020,0
1664550808.195,-6.836,40.039,-371.094,-13.672,0
1664550808.199,2.930,39.551,-381.836,-3.906,0
1664550808.203,-0.488,35.156,-406.738,-13.672,0
1664550808.207,-10.254,47.363,-360.840,-20.508,0
1664550808.211,-15.625,52.734,-318.359,-16.113,0
1664550808.227,-3.418,41.504,-327.148,-10.742,0
1664550808.231,7.812,41.504,-323.730,-11.230,0
1664550808.235,-10.254,40.527,-363.770,-19.043,0
1664550808.239,-17.090,40.527,-359.863,-27.832,0
1664550808.243,-4.883,31.250,-384.277,-8.789,0
1664550808.247,-5.859,8.301,-455.078,-7.812,0
1664550808.251,-14.648,37.598,-371.582,-23.438,0
1664550808.254,-17.090,49.805,-320.801,-21.484,0
1664550808.258,-7.324,9.766,-452.637,-9.277,0
1664550808.262,-9.277,8.301,-491.699,3.906,0
1664550808.266,-20.996,44.922,-319.824,-6.836,0
1664550808.270,-15.625,26.367,-324.219,-16.113,0
1664550808.273,0.000,7.812,-363.770,-2.930,0
1664550808.277,1.465,14.648,-352.539,-5.859,0
1664550808.281,-5.371,26.367,-318.359,-20.508,0
1664550808.285,-8.301,20.508,-336.914,-19.043,0
1664550808.289,-12.695,-2.930,-402.344,-15.137,0
1664550808.293,-7.324,2.441,-404.297,-12.695,0
1664550808.297,-2.930,19.531,-397.461,-14.648,0
1664550808.300,-10.742,23.926,-368.652,-21.973,0
1664550808.304,-0.488,2.930,-477.051,-10.254,0
1664550808.308,1.465,16.113,-493.164,-2.441,0
1664550808.312,-13.184,46.387,-329.590,-17.090,0
1664550808.316,-4.883,16.602,-365.234,-18.555,0
1664550808.317,-11.230,11.719,-380.859,-17.578,0
1664550808.321,-14.648,21.484,-366.211,-14.648,0
1664550808.325,4.883,17.578,-338.867,-10.742,0
1664550808.329,-13.184,0.000,-352.539,-27.832,0
1664550808.333,-20.020,-7.324,-374.512,-34.180,0
1664550808.337,-5.371,-6.836,-387.207,-19.043,0
1664550808.341,-9.277,6.836,-326.172,-11.719,0
1664550808.344,-11.230,-7.324,-379.395,-3.906,0
1664550808.348,-6.348,-24.902,-479.492,-0.488,0
1664550808.352,3.906,23.438,-332.031,-6.836,0
1664550808.356,7.324,24.414,-292.480,-10.254,0
1664550808.360,3.418,-10.742,-432.129,-11.230,0
1664550808.363,-2.441,-8.789,-471.191,-17.090,0
1664550808.367,-10.742,18.066,-340.820,-19.531,0
1664550808.371,0.977,22.461,-300.293,-11.719,0
1664550808.375,0.000,10.742,-319.336,-4.395,0
1664550808.379,-5.371,6.836,-346.191,-7.812,0
1664550808.383,-4.883,-3.906,-401.855,-15.137,0
1664550808.387,-1.953,2.441,-351.074,-13.672,0
1664550808.390,7.324,-24.414,-468.750,-6.348,0
1664550808.394,-6.348,-12.207,-486.328,-14.648,0
1664550808.398,-22.461,24.414,-298.340,-30.762,0
1664550808.402,-16.602,-6.348,-351.562,-20.996,0
1664550808.406,-9.277,-8.789,-370.605,-15.137,0
1664550808.408,-6.836,3.906,-316.895,-19.531,0
1664550808.412,-5.371,6.348,-306.152,-21.973,0
1664550808.416,-4.395,-3.906,-344.238,-20.508,0
1664550808.420,-3.906,-2.441,-347.168,-10.742,0
1664550808.424,3.906,14.160,-337.891,-4.395,0
1664550808.428,-6.348,3.906,-359.375,-17.090,0
1664550808.432,-8.301,-9.766,-415.527,-27.832,0
1664550808.435,7.812,-9.277,-473.145,-9.277,0
1664550808.439,2.930,30.273,-328.613,-6.348,0
1664550808.443,-1.465,23.926,-274.902,-25.879,0
1664550808.447,-8.301,-13.672,-400.879,-32.227,0
1664550808.451,-6.836,-6.348,-416.504,-22.949,0
1664550808.453,1.465,9.277,-320.801,-20.996,0
1664550808.457,-16.113,-1.465,-326.172,-27.344,0
1664550808.461,-30.273,-16.602,-346.191,-30.273,0
1664550808.465,-21.973,-7.324,-327.637,-31.738,0
1664550808.469,-5.859,-5.859,-378.906,-19.531,0
1664550808.473,-3.418,-13.672,-390.137,-16.113,0
1664550808.477,-12.207,-41.016,-491.699,-16.602,0
1664550808.480,-16.602,-38.574,-543.457,-10.742,0
1664550808.484,-6.348,15.137,-333.008,-13.672,0
1664550808.488,4.395,1.953,-336.426,-10.742,0
1664550808.492,-5.371,-13.184,-403.320,-20.996,0
1664550808.496,-18.066,0.000,-336.914,-28.809,0
1664550808.498,-12.695,-0.488,-307.129,-24.414,0
1664550808.502,4.883,-17.578,-350.098,-16.113,0
1664550808.506,11.719,-23.926,-377.441,-14.160,0
1664550808.510,14.160,-9.766,-345.215,-17.090,0
1664550808.514,19.531,-18.555,-354.004,-6.348,0
1664550808.518,21.973,-45.898,-419.922,4.883,0
1664550808.522,12.695,-36.621,-408.203,-8.301,0
1664550808.525,-1.953,1.953,-355.469,-34.180,0
1664550808.529,-5.859,0.977,-344.238,-46.387,0
1664550808.533,-0.977,-11.230,-371.582,-39.062,0
1664550808.537,7.812,-1.953,-390.137,-36.621,0
1664550808.541,0.000,16.602,-327.637,-38.086,0
1664550808.557,-10.742,11.230,-337.891,-33.203,0
1664550808.561,-10.742,-3.418,-358.887,-24.902,0
1664550808.565,-12.207,3.418,-380.371,-24.902,0
1664550808.569,-11.230,17.090,-340.332,-30.762,0
1664550808.573,-0.488,0.000,-381.348,-25.879,0
1664550808.577,6.348,-21.973,-477.539,-15.625,0
1664550808.581,7.324,-2.930,-413.574,-6.348,0
1664550808.584,10.254,6.348,-396.973,-14.160,0
1664550808.588,-1.953,9.766,-395.996,-20.996,0
1664550808.592,-6.836,-8.789,-437.500,-5.371,0
1664550808.596,-7.812,-10.254,-440.430,-6.348,0
1664550808.600,-16.113,20.508,-305.176,-27.832,0
1664550808.603,-10.254,4.395,-295.898,-35.645,0
1664550808.607,9.766,-5.859,-355.469,-32.715,0
1664550808.611,15.625,8.301,-358.887,-23.926,0
1664550808.615,-2.441,12.695,-308.594,-23.926,0
1664550808.619,-14.648,-7.812,-341.797,-43.945,0
1664550808.623,0.000,-27.832,-434.570,-42.480,0
1664550808.627,-5.371,-5.859,-389.648,-20.996,0
1664550808.630,-17.090,15.137,-316.895,-25.879,0
1664550808.634,-14.648,-21.484,-424.805,-37.598,0
1664550808.638,-19.043,-39.062,-523.926,-26.367,0
1664550808.642,-17.090,10.254,-345.215,-20.508,0
1664550808.646,-12.695,5.371,-330.078,-13.184,0
1664550808.648,-20.020,-25.879,-402.832,-15.625,0
1664550808.652,-27.832,-20.020,-391.602,-33.203,0
1664550808.656,-16.113,-3.418,-356.445,-26.855,0
1664550808.660,-5.859,-11.230,-340.820,-14.648,0
1664550808.664,-8.789,-36.621,-428.711,-17.090,0
1664550808.668,-9.277,-34.668,-446.289,-24.902,0
1664550808.672,-15.137,-26.855,-423.828,-23.438,0
1664550808.675,-5.859,-20.020,-384.766,-20.508,0
1664550808.679,0.000,-40.039,-479.004,-12.695,0
1664550808.683,-22.461,-36.133,-515.137,-22.461,0
1664550808.687,-26.855,8.789,-333.008,-47.852,0
1664550808.691,-18.555,-14.648,-357.910,-37.109,0
1664550808.692,-14.648,-26.855,-375.000,-30.762,0
1664550808.696,-21.973,-10.254,-344.727,-40.039,0
1664550808.700,-23.926,-20.508,-383.301,-37.109,0
1664550808.704,-17.090,-26.855,-385.742,-25.391,0
1664550808.708,-4.883,-15.625,-365.723,-24.414,0
1664550808.712,-4.395,-19.531,-421.387,-33.203,0
1664550808.716,-23.438,-5.371,-365.723,-41.504,0
1664550808.719,-25.391,-13.184,-407.227,-31.250,0
1664550808.723,-20.996,-28.320,-504.883,-10.254,0
1664550808.727,-26.367,20.996,-360.840,-19.043,0
1664550808.731,-30.273,25.391,-284.180,-39.551,0
1664550808.735,-22.461,-19.531,-434.082,-33.691,0
1664550808.738,-0.488,-14.160,-474.609,-16.602,0
1664550808.742,-2.930,11.719,-314.453,-18.066,0
1664550808.746,-18.555,4.395,-328.613,-30.273,0
1664550808.750,-19.043,5.859,-355.957,-30.762,0
1664550808.754,-10.254,21.484,-350.586,-20.508,0
1664550808.758,-1.953,25.391,-378.906,-11.230,0
1664550808.762,-5.371,28.320,-365.723,-20.996,0
1664550808.765,-2.930,-1.465,-499.512,-17.578,0
1664550808.769,-3.418,18.066,-495.605,-10.742,0
1664550808.773,-0.977,70.312,-280.273,-21.484,0
1664550808.777,12.207,40.039,-328.613,-28.320,0
1664550808.781,4.883,25.391,-367.188,-34.180,0
1664550808.783,-13.184,39.062,-289.551,-34.668,0
1664550808.787,-0.977,26.855,-302.246,-20.020,0
1664550808.791,3.418,6.348,-360.352,-10.254,0
1664550808.795,-11.230,10.254,-362.305,-22.461,0
1664550808.799,-8.301,15.625,-370.117,-23.926,0
1664550808.803,-0.977,-0.488,-389.160,-16.602,0
1664550808.807,0.977,-17.578,-437.012,-16.113,0
1664550808.810,3.418,-23.438,-506.348,-13.184,0
1664550808.814,-2.441,16.602,-386.719,-24.902,0
1664550808.818,5.859,20.020,-291.016,-22.949,0
1664550808.822,14.160,-18.066,-388.184,-9.277,0
1664550808.826,7.324,-24.414,-434.570,-18.066,0
1664550808.828,0.000,-4.883,-339.355,-26.367,0
1664550808.832,-3.906,-10.742,-326.172,-18.066,0
1664550808.836,-1.953,-35.645,-359.863,-19.043,0
1664550808.840,-4.883,-28.320,-357.422,-26.367,0
1664550808.844,-14.648,-20.020,-349.121,-28.320,0
1664550808.848,-10.742,-28.809,-360.352,-28.320,0
1664550808.852,3.906,-53.223,-497.559,-17.090,0
1664550808.855,0.000,-35.645,-515.137,-14.160,0
1664550808.859,-6.836,6.348,-333.496,-37.109,0
1664550808.863,-3.418,-22.949,-384.277,-43.945,0
1664550808.867,1.465,-29.785,-419.922,-35.156,0
1664550808.871,0.488,-10.742,-335.449,-27.832,0
1664550808.873,-0.977,-6.348,-318.848,-22.949,0
1664550808.877,-0.488,-26.855,-365.723,-27.344,0
1664550808.881,4.883,-35.156,-383.301,-24.414,0
1664550808.885,16.602,-9.766,-336.914,-14.160,0
1664550808.889,12.207,-15.137,-347.168,-19.531,0
1664550808.893,6.348,-41.016,-423.828,-27.832,0
1664550808.897,0.977,-43.457,-464.355,-17.578,0
1664550808.900,-6.348,-2.930,-358.887,-16.602,0
1664550808.904,-11.719,2.441,-301.270,-28.320,0
1664550808.908,-13.672,-24.414,-404.297,-24.414,0
1664550808.912,-5.371,-15.137,-406.250,-17.578,0
1664550808.916,1.953,-2.930,-334.473,-17.578,0
1664550808.917,6.836,-19.043,-368.652,-17.090,0
1664550808.921,3.906,-20.508,-385.254,-19.531,0
1664550808.925,-5.859,-6.836,-377.441,-22.461,0
1664550808.929,-1.953,4.395,-312.500,-10.254,0
1664550808.933,10.254,-3.906,-329.102,-5.859,0
1664550808.937,-5.371,-39.551,-469.238,-12.207,0
1664550808.941,-16.113,-31.738,-478.027,-12.207,0
1664550808.944,-9.277,1.465,-373.535,-13.184,0
1664550808.948,-8.789,0.000,-387.207,-18.555,0
1664550808.952,-3.906,-21.973,-440.918,-13.672,0
1664550808.956,-8.301,4.395,-366.699,-17.090,0
1664550808.960,-5.859,22.461,-312.988,-21.484,0
1664550808.978,1.953,-1.465,-339.844,-15.137,0
1664550808.982,-2.930,-6.836,-378.418,-20.020,0
1664550808.986,-8.789,0.977,-399.902,-32.227,0
1664550808.990,-6.348,3.418,-356.934,-36.621,0
1664550808.994,-3.906,-8.301,-366.211,-23.438,0
1664550808.998,-9.766,-33.203,-441.406,-16.602,0
1664550809.002,-17.090,-11.230,-383.301,-31.250,0
1664550809.005,-12.207,15.137,-315.430,-36.621,0
1664550809.009,-1.953,-19.043,-437.012,-23.438,0
1664550809.013,-2.441,-32.715,-495.605,-17.578,0
1664550809.017,-4.395,14.160,-349.609,-34.668,0
1664550809.021,4.883,16.602,-347.168,-46.387,0
1664550809.023,12.695,5.371,-400.391,-30.273,0
1664550809.027,11.230,11.719,-392.090,-16.113,0
1664550809.031,4.395,19.043,-341.309,-23.926,0
1664550809.035,-0.977,7.324,-369.629,-30.273,0
1664550809.039,0.977,-9.766,-434.082,-24.414,0
1664550809.043,2.441,-4.883,-419.434,-9.766,0
1664550809.047,-3.418,5.859,-400.879,-10.742,0
1664550809.050,-0.488,11.230,-392.578,-25.391,0
1664550809.054,13.672,-15.625,-537.109,-17.578,0
1664550809.058,17.090,3.906,-538.086,-7.324,0
1664550809.062,16.113,48.828,-306.641,-16.113,0
1664550809.066,11.230,15.137,-350.098,-30.762,0
1664550809.068,3.906,1.465,-388.672,-39.062,0
1664550809.072,16.602,8.789,-362.793,-23.926,0
1664550809.076,22.949,4.395,-361.816,-20.020,0
1664550809.080,16.113,-6.348,-363.281,-23.438,0
1664550809.084,6.348,-16.113,-401.367,-25.879,0
1664550809.088,2.441,-12.207,-438.477,-17.578,0
1664550809.092,10.254,4.883,-370.117,-14.160,0
1664550809.095,9.766,-6.348,-420.898,-28.320,0
1664550809.099,-8.301,-24.414,-503.906,-30.273,0
1664550809.103,-11.230,10.742,-367.188,-38.086,0
1664550809.107,0.488,15.625,-334.961,-37.109,0
1664550809.111,3.418,-17.090,-398.926,-26.855,0
1664550809.113,-1.465,-19.531,-403.320,-35.156,0
1664550809.117,4.883,-1.465,-336.426,-47.363,0
1664550809.121,9.766,-10.254,-322.754,-39.062,0
1664550809.125,-4.395,-26.367,-349.609,-29.785,0
1664550809.129,-13.672,-23.926,-394.531,-42.480,0
1664550809.133,-11.719,-24.414,-415.527,-48.340,0
1664550809.137,-1.953,-24.414,-395.020,-38.086,0
1664550809.140,-2.930,-49.805,-523.438,-26.855,0
1664550809.144,-10.742,-30.273,-520.996,-28.320,0
1664550809.148,0.488,1.465,-381.836,-40.527,0
1664550809.152,10.254,-22.949,-414.062,-34.668,0
1664550809.156,7.812,-13.184,-376.953,-19.531,0
1664550809.158,7.324,-4.395,-338.867,-16.602,0
1664550809.162,3.418,-6.348,-332.520,-22.461,0
1664550809.166,0.488,-20.996,-353.516,-24.902,0
1664550809.170,7.324,-23.926,-344.727,-26.367,0
1664550809.174,7.324,-14.160,-351.074,-27.832,0
1664550809.178,2.441,-29.785,-416.504,-41.504,0
1664550809.182,7.324,-37.598,-422.363,-47.852,0
1664550809.185,4.883,-34.668,-429.199,-28.809,0
1664550809.189,-0.977,-2.441,-366.211,-29.785,0
1664550809.193,-6.348,6.836,-330.078,-48.828,0
1664550809.197,-4.883,-15.625,-417.969,-45.410,0
1664550809.201,-1.465,-27.832,-479.004,-30.273,0
1664550809.203,-3.418,-8.301,-366.699,-29.297,0
1664550809.207,-11.719,-1.953,-317.383,-41.992,0
1664550809.211,-20.020,-22.461,-355.957,-50.293,0
1664550809.215,-13.184,-15.625,-364.746,-35.156,0
1664550809.219,-8.789,-6.348,-359.863,-27.344,0
1664550809.223,-9.277,-17.090,-351.074,-38.574,0
1664550809.227,-3.906,-49.316,-502.441,-25.879,0
1664550809.230,-5.371,-31.738,-510.742,-18.066,0
1664550809.234,-8.789,8.789,-324.219,-24.414,0
1664550809.238,-11.230,-14.648,-363.770,-21.484,0
1664550809.242,-12.695,-16.602,-375.000,-33.203,0
1664550809.246,-13.184,-10.254,-340.820,-35.156,0
1664550809.248,-4.395,-13.184,-341.797,-20.020,0
1664550809.252,8.789,-25.879,-346.191,-16.602,0
1664550809.256,2.930,-33.203,-364.746,-25.391,0
1664550809.260,0.977,-17.090,-361.328,-29.297,0
1664550809.264,7.324,-13.672,-346.191,-19.531,0
1664550809.268,0.977,-42.480,-424.316,-7.324,0
1664550809.272,0.977,-51.270,-478.516,-15.137,0
1664550809.275,-5.859,-4.395,-371.094,-40.039,0
1664550809.279,-9.766,-3.906,-309.570,-44.434,0
1664550809.283,2.441,-37.598,-396.484,-26.367,0
1664550809.287,0.977,-42.480,-440.918,-26.855,0
1664550809.291,-0.977,-28.809,-365.723,-39.062,0
1664550809.293,-7.324,-30.273,-337.402,-39.551,0
1664550809.297,-8.789,-44.922,-368.652,-33.691,0
1664550809.301,-2.441,-38.574,-395.020,-32.227,0
1664550809.305,-8.301,-21.484,-346.191,-42.480,0
1664550809.309,-10.742,-36.621,-387.695,-45.410,0
1664550809.313,-1.953,-56.152,-432.129,-20.508,0
1664550809.317,0.977,-41.992,-404.297,-14.160,0
1664550809.320,7.324,-25.879,-372.559,-24.902,0
1664550809.324,-0.488,-23.926,-353.516,-30.273,0
1664550809.328,-14.648,-50.781,-496.094,-19.531,0
1664550809.332,-14.648,-21.484,-434.082,-7.324,0
1664550809.336,-7.324,10.742,-283.691,-21.973,0
1664550809.353,-10.254,-20.020,-319.336,-31.738,0
1664550809.357,-11.230,-23.926,-336.426,-34.668,0
1664550809.361,-2.930,-5.859,-311.035,-24.414,0
1664550809.365,-1.465,-9.277,-297.852,-20.508,0
1664550809.369,-5.371,-30.762,-354.980,-36.621,0
1664550809.373,-2.930,-45.898,-436.035,-42.969,0
1664550809.377,-1.953,-27.344,-428.711,-28.809,0
1664550809.380,3.906,-1.465,-356.934,-21.973,0
1664550809.384,2.441,-18.555,-432.617,-26.367,0
1664550809.388,-0.977,-33.203,-508.301,-31.250,0
1664550809.392,7.324,5.859,-354.492,-30.762,0
1664550809.396,3.418,-2.441,-329.102,-27.344,0
1664550809.398,-6.836,-37.598,-400.391,-26.367,0
1664550809.402,-17.578,-32.715,-432.129,-32.715,0
1664550809.406,-17.090,-12.695,-355.957,-36.621,0
1664550809.410,-7.812,-23.438,-356.934,-23.438,0
1664550809.414,-11.719,-37.109,-413.574,-23.438,0
1664550809.418,-16.113,-34.180,-430.176,-38.574,0
1664550809.422,-4.395,-22.949,-423.340,-37.109,0
1664550809.425,4.395,-9.766,-374.023,-29.297,0
1664550809.429,-1.465,-40.527,-507.812,-17.090,0
1664550809.433,-15.625,-32.227,-527.344,-23.926,0
1664550809.437,-24.902,17.090,-319.336,-41.992,0
1664550809.441,-25.391,-5.371,-335.938,-35.645,0
1664550809.444,-20.996,-22.949,-386.230,-25.391,0
1664550809.448,-19.531,-13.184,-359.375,-24.902,0
1664550809.452,-20.996,-7.324,-343.750,-26.367,0
1664550809.456,-9.277,-15.137,-346.680,-22.461,0
1664550809.460,-0.488,-17.090,-360.840,-11.719,0
1664550809.464,0.977,-21.484,-443.359,-12.207,0
1664550809.468,-3.418,-5.371,-388.184,-26.367,0
1664550809.471,-0.977,-2.930,-378.418,-27.832,0
1664550809.475,-1.953,-23.438,-476.074,-14.160,0
1664550809.479,-7.812,13.184,-359.863,-17.578,0
1664550809.483,-9.277,13.672,-336.914,-35.156,0
1664550809.487,-10.742,-15.137,-442.383,-41.016,0
1664550809.488,-9.277,-4.883,-440.918,-29.297,0
1664550809.492,-2.441,13.672,-337.402,-27.344,0
1664550809.496,2.930,-0.488,-369.141,-39.551,0
1664550809.500,-5.371,-3.906,-381.348,-40.039,0
1664550809.504,-11.230,4.883,-373.047,-23.438,0
1664550809.508,-17.090,0.488,-413.574,-20.508,0
1664550809.512,-21.973,9.766,-398.438,-31.738,0
1664550809.515,-16.602,-20.508,-540.039,-27.832,0
1664550809.519,-12.207,-6.836,-519.531,-26.367,0
1664550809.523,-9.277,46.875,-310.547,-28.320,0
1664550809.527,-2.930,25.879,-339.355,-25.391,0
1664550809.531,-6.348,14.648,-379.883,-27.832,0
1664550809.532,-11.719,21.973,-361.328,-23.438,0
1664550809.536,-5.859,12.207,-378.418,-24.902,0
1664550809.540,0.488,4.883,-401.855,-31.738,0
1664550809.544,2.441,16.602,-377.930,-32.715,0
1664550809.548,-1.465,22.949,-395.508,-29.785,0
1664550809.552,3.906,13.184,-401.367,-16.113,0
1664550809.556,6.836,0.977,-413.574,-19.043,0
1664550809.559,-5.859,-4.883,-451.660,-26.855,0
1664550809.563,-12.695,33.691,-368.652,-24.414,0
1664550809.567,-5.371,49.805,-270.996,-16.602,0
1664550809.571,-0.977,11.230,-414.551,-13.672,0
1664550809.575,-6.348,15.137,-479.980,-24.902,0
1664550809.578,5.859,61.523,-330.566,-25.879,0
1664550809.582,10.742,64.453,-335.449,-24.902,0
1664550809.586,2.930,96.680,-335.938,-21.484,0
1664550809.590,4.395,159.668,-363.281,-24.414,0
1664550809.594,-4.395,182.617,-407.227,-31.738,0
1664550809.598,-3.906,199.707,-378.418,-29.785,0
1664550809.602,6.836,181.152,-515.137,-8.789,0
1664550809.605,-1.465,198.730,-510.254,-13.672,0
1664550809.609,-12.207,243.652,-315.430,-38.574,0
1664550809.613,-2.441,217.285,-353.516,-28.320,0
1664550809.617,-0.488,202.148,-390.137,-15.625,0
1664550809.621,-5.859,202.637,-355.469,-14.160,0
1664550809.622,-3.906,202.148,-340.332,-26.855,0
1664550809.626,-3.906,185.059,-376.953,-32.715,0
1664550809.630,-1.953,176.758,-362.305,-21.484,0
1664550809.634,-1.953,182.129,-354.980,-15.137,0
1664550809.638,2.930,174.805,-358.398,-26.367,0
1664550809.642,0.488,143.066,-439.941,-28.809,0
1664550809.646,-2.441,123.535,-511.719,-12.695,0
1664550809.649,6.348,173.340,-402.344,-12.207,0
1664550809.653,4.395,181.152,-316.406,-25.879,0
1664550809.657,4.395,133.301,-403.320,-30.762,0
1664550809.661,12.207,127.441,-428.223,-29.297,0
1664550809.665,7.812,137.695,-331.055,-19.043,0
1664550809.667,-7.324,125.000,-333.496,-18.555,0
1664550809.671,-6.836,103.516,-356.445,-25.879,0
1664550809.675,1.953,104.980,-383.789,-19.531,0
1664550809.679,1.953,117.188,-351.562,-13.672,0
1664550809.683,-2.441,101.074,-351.074,-20.508,0
1664550809.687,-10.254,70.312,-416.992,-28.320,0
1664550809.691,-4.883,74.219,-414.062,-25.879,0
1664550809.694,6.836,91.309,-369.141,-14.160,0
1664550809.698,-2.930,80.566,-358.887,-12.207,0
1664550809.702,-11.230,55.176,-478.027,-13.184,0
1664550809.706,-18.066,79.590,-436.035,-21.484,0
1664550809.710,-13.184,111.816,-309.082,-24.902,0
1664550809.729,-7.812,95.215,-336.914,-11.719,0
1664550809.733,-14.648,87.402,-378.418,-17.090,0
1664550809.737,-11.230,109.863,-364.746,-22.949,0
1664550809.741,-2.441,129.883,-312.012,-12.695,0
1664550809.745,0.488,119.141,-348.633,-6.836,0
1664550809.749,-9.277,100.586,-408.203,-12.695,0
1664550809.753,-7.812,123.047,-359.375,-22.461,0
1664550809.756,0.488,138.672,-327.148,-28.809,0
1664550809.760,5.859,106.445,-418.457,-16.602,0
1664550809.764,15.625,107.422,-457.031,-3.418,0
1664550809.768,0.977,141.113,-349.121,-16.113,0
1664550809.772,-9.766,116.211,-377.441,-25.879,0
1664550809.772,-0.488,107.910,-396.484,-18.555,0
1664550809.776,-2.441,122.559,-344.238,-6.348,0
1664550809.780,-6.348,124.023,-329.102,-3.418,0
1664550809.784,-8.301,113.281,-358.887,-20.508,0
1664550809.788,-16.113,95.703,-404.297,-24.414,0
1664550809.792,-11.230,98.633,-422.852,-20.508,0
1664550809.796,-5.371,110.840,-349.609,-25.879,0
1664550809.799,4.883,108.398,-341.797,-26.855,0
1664550809.803,7.324,67.871,-508.301,-20.996,0
1664550809.807,4.883,85.449,-499.512,-12.207,0
1664550809.811,6.348,132.812,-308.594,-20.508,0
1664550809.815,-4.883,94.727,-341.309,-35.156,0
1664550809.818,-10.254,79.102,-375.000,-34.668,0
1664550809.822,-6.836,80.566,-361.816,-24.414,0
1664550809.826,-10.254,82.031,-334.961,-28.320,0
1664550809.830,-11.719,66.406,-351.074,-36.621,0
1664550809.834,-1.953,50.781,-394.043,-35.645,0
1664550809.838,2.441,59.082,-407.227,-26.367,0
1664550809.842,0.000,67.383,-357.422,-20.020,0
1664550809.845,-1.465,51.270,-386.719,-25.391,0
1664550809.849,-0.488,31.738,-457.031,-24.414,0
1664550809.853,-2.930,73.730,-348.633,-14.160,0
1664550809.857,-2.441,79.590,-292.969,-8.301,0
1664550809.861,2.930,51.270,-375.977,-8.789,0
1664550809.863,0.977,49.805,-398.926,-14.648,0
1664550809.867,-11.719,63.477,-311.035,-21.484,0
1664550809.871,-7.812,54.688,-333.008,-10.254,0
1664550809.875,-6.836,33.203,-363.770,-1.953,0
1664550809.879,-13.672,40.527,-347.168,-18.066,0
1664550809.883,-6.348,37.109,-396.973,-26.855,0
1664550809.887,-4.395,36.133,-388.672,-20.020,0
1664550809.890,1.953,7.812,-512.207,-3.906,0
1664550809.894,1.465,17.578,-527.832,-9.766,0
1664550809.898,-5.371,71.289,-320.312,-31.250,0
1664550809.902,-6.836,45.898,-335.938,-23.438,0
1664550809.906,1.465,33.203,-378.906,-7.324,0
1664550809.909,1.465,48.828,-347.656,-13.184,0
1664550809.913,4.395,52.734,-316.895,-35.156,0
1664550809.917,5.371,31.738,-369.629,-32.227,0
1664550809.921,-4.883,26.367,-356.934,-26.855,0
1664550809.925,-5.371,34.180,-353.027,-37.109,0
1664550809.929,2.930,31.250,-401.367,-41.992,0
1664550809.933,-0.977,17.578,-434.082,-39.062,0
1664550809.936,-4.883,0.488,-469.238,-22.461,0
1664550809.940,-2.441,46.875,-348.145,-15.625,0
1664550809.944,-10.742,51.270,-313.477,-26.855,0
1664550809.948,-12.207,15.137,-403.320,-27.344,0
1664550809.952,4.883,19.043,-407.227,-17.090,0
1664550809.951,7.324,41.992,-310.547,-13.672,0
1664550809.955,3.906,35.156,-318.848,-19.531,0
1664550809.959,11.719,13.672,-375.488,-20.996,0
1664550809.963,2.441,21.973,-371.582,-16.113,0
1664550809.967,-0.488,27.832,-361.328,-13.672,0
1664550809.971,4.395,18.066,-400.879,-22.949,0
1664550809.975,7.324,-8.789,-508.789,-19.043,0
1664550809.978,5.371,3.906,-528.809,-7.324,0
1664550809.982,2.930,52.246,-351.562,-11.230,0
1664550809.986,12.207,38.086,-360.840,-19.531,0
1664550809.990,8.301,40.527,-397.461,-27.344,0
1664550809.994,4.395,56.641,-353.027,-18.555,0
1664550809.996,9.277,54.199,-328.125,-15.625,0
1664550810.000,0.977,33.691,-356.934,-22.949,0
1664550810.004,-3.418,20.508,-394.531,-28.320,0
1664550810.008,-9.766,34.668,-368.164,-29.297,0
1664550810.012,-7.324,40.039,-333.496,-18.555,0
1664550810.016,-1.953,8.789,-416.992,-14.648,0
1664550810.020,-14.160,1.465,-474.609,-22.461,0
1664550810.023,-14.160,45.410,-350.098,-36.133,0
1664550810.027,-8.301,44.434,-290.039,-27.832,0
1664550810.031,-5.859,6.836,-413.574,-6.836,0
1664550810.035,-0.488,-5.859,-486.816,-6.836,0
1664550810.039,0.488,16.113,-399.902,-25.391,0
1664550810.041,-5.371,28.809,-335.449,-28.809,0
1664550810.045,-4.395,15.625,-352.539,-16.602,0
1664550810.049,-2.930,14.648,-411.621,-17.090,0
1664550810.053,-12.207,25.879,-362.793,-30.273,0
1664550810.057,-11.230,19.043,-342.773,-36.133,0
1664550810.061,2.930,-12.207,-479.980,-13.672,0
1664550810.065,3.906,-7.324,-479.004,-9.277,0
1664550810.068,-1.953,23.926,-371.094,-29.297,0
1664550810.072,-7.324,29.785,-373.535,-34.668,0
1664550810.076,-6.348,4.395,-418.457,-13.184,0
1664550810.080,-3.418,12.695,-372.559,-2.441,0
1664550810.084,1.465,31.250,-310.059,-22.461,0
1664550810.102,6.348,9.277,-343.262,-29.297,0
1664550810.106,1.953,0.488,-387.695,-26.855,0
1664550810.110,-2.930,19.531,-335.449,-20.996,0
1664550810.114,0.977,27.344,-316.895,-19.043,0
1664550810.118,4.883,5.859,-370.117,-24.902,0
1664550810.122,-1.465,-15.625,-417.969,-23.926,0
1664550810.126,0.488,14.648,-376.465,-19.043,0
1664550810.129,4.883,34.180,-303.711,-19.531,0
1664550810.133,1.953,0.488,-381.836,-25.391,0
1664550810.137,5.371,-5.859,-443.848,-32.227,0
1664550810.141,6.348,25.879,-347.168,-27.344,0
1664550810.145,7.324,31.250,-291.016,-7.812,0
1664550810.147,8.789,-10.254,-413.086,-10.254,0
1664550810.151,2.930,-25.879,-530.762,-25.391,0
1664550810.155,-0.488,23.926,-350.098,-27.832,0
1664550810.159,8.789,15.137,-365.234,-12.695,0
1664550810.163,19.531,0.488,-430.176,-7.812,0
1664550810.167,6.836,6.348,-397.461,-27.344,0
1664550810.171,-16.602,7.324,-372.070,-36.621,0
1664550810.174,-22.461,5.371,-346.680,-33.691,0
1664550810.178,-15.625,-24.414,-469.238,-22.949,0
1664550810.182,-12.207,-16.602,-504.883,-25.391,0
1664550810.186,-10.254,27.832,-318.848,-27.832,0
1664550810.190,-15.625,-6.348,-361.816,-15.625,0
1664550810.192,-13.184,-25.879,-398.438,-12.695,0
1664550810.196,-2.930,1.465,-315.918,-15.625,0
1664550810.200,-3.418,9.277,-316.406,-23.438,0
1664550810.204,-4.395,-2.930,-324.219,-15.625,0
1664550810.208,-2.930,-15.137,-356.445,-10.254,0
1664550810.212,-2.930,-9.277,-420.410,-19.043,0
1664550810.216,-0.488,3.418,-415.039,-24.414,0
1664550810.219,-5.859,2.930,-429.199,-15.625,0
1664550810.223,-4.395,0.488,-448.242,0.000,0
1664550810.227,0.977,35.156,-350.098,-7.812,0
1664550810.231,-3.418,35.156,-322.266,-29.785,0
1664550810.235,-7.324,4.883,-389.648,-25.879,0
1664550810.237,-3.418,8.789,-412.598,-15.137,0
1664550810.241,-10.254,20.996,-334.961,-21.973,0
1664550810.245,-14.648,8.789,-346.191,-29.297,0
1664550810.249,-9.277,-7.812,-367.188,-31.250,0
1664550810.253,-1.953,-1.465,-370.605,-21.484,0
1664550810.257,2.930,4.395,-391.113,-9.277,0
1664550810.261,-2.930,9.277,-386.230,-19.531,0
1664550810.264,-8.301,-26.855,-543.945,-19.043,0
1664550810.268,-4.395,-4.883,-520.020,-5.371,0
1664550810.272,-3.906,59.570,-292.480,-5.371,0
1664550810.276,-1.953,27.832,-338.379,-15.137,0
1664550810.280,-7.812,7.812,-391.602,-31.738,0
1664550810.282,-10.254,19.531,-351.562,-26.367,0
1664550810.286,2.930,22.949,-332.031,-10.742,0
1664550810.290,7.324,8.301,-352.539,-6.348,0
1664550810.294,-2.930,3.906,-353.027,-14.160,0
1664550810.298,-6.836,7.812,-362.793,-17.578,0
1664550810.302,-5.859,-6.348,-400.391,-15.137,0
1664550810.306,-6.836,-15.625,-430.176,-13.672,0
1664550810.309,-12.207,-21.973,-477.051,-22.949,0
1664550810.313,-12.207,23.926,-356.445,-30.273,0
1664550810.317,-4.395,24.414,-316.406,-12.207,0
1664550810.321,-0.977,-20.508,-404.297,-1.465,0
1664550810.325,-2.930,-9.766,-416.504,-18.066,0
1664550810.328,-2.930,18.066,-319.824,-31.738,0
1664550810.332,-1.953,7.324,-290.039,-24.414,0
1664550810.336,-6.348,-20.020,-361.328,-19.043,0
1664550810.340,-11.719,-5.859,-343.750,-28.320,0
1664550810.344,-18.066,2.441,-325.195,-42.480,0
1664550810.348,-6.348,-17.578,-364.258,-36.133,0
1664550810.352,13.184,-49.805,-515.137,-14.648,0
1664550810.355,-3.906,-26.855,-533.203,-13.184,0
1664550810.359,-23.926,33.203,-317.871,-36.621,0
1664550810.363,-15.137,7.812,-356.445,-39.551,0
1664550810.367,-12.207,-5.371,-378.418,-28.320,0
1664550810.371,-14.160,5.371,-317.383,-27.344,0
1664550810.373,-19.531,-1.465,-364.746,-34.180,0
1664550810.377,-22.949,-11.230,-402.832,-40.527,0
1664550810.381,-20.020,0.977,-367.676,-32.227,0
1664550810.385,-19.531,15.137,-341.309,-29.297,0
1664550810.389,-34.668,0.000,-365.234,-47.363,0
1664550810.393,-37.598,-28.809,-455.566,-58.594,0
1664550810.397,-38.574,-32.715,-474.121,-51.270,0
1664550810.400,-48.828,17.090,-353.516,-53.223,0
1664550810.404,-45.898,30.762,-317.871,-70.801,0
1664550810.408,-46.387,-6.836,-440.430,-85.449,0
1664550810.412,-43.945,-6.348,-461.426,-85.938,0
1664550810.416,-55.176,18.066,-344.727,-74.707,0
1664550810.417,-86.426,18.555,-329.590,-90.820,0
1664550810.421,-107.422,-3.906,-375.488,-122.070,0
1664550810.425,-117.188,-11.719,-442.383,-125.488,0
1664550810.429,-137.207,7.324,-419.922,-127.930,0
1664550810.433,-139.648,16.113,-344.727,-144.043,0
1664550810.437,-148.926,-28.320,-500.977,-151.855,0
1664550810.441,-174.805,-27.832,-595.703,-169.922,0
1664550810.444,-168.457,37.598,-409.668,-191.895,0
1664550810.448,-155.273,41.016,-361.816,-183.105,0
1664550810.452,-179.688,22.949,-398.438,-189.941,0
1664550810.456,-208.496,23.438,-391.113,-229.492,0
1664550810.460,-208.984,25.879,-390.137,-235.840,0
1664550810.478,-206.055,19.043,-383.789,-216.309,0
1664550810.482,-219.727,11.230,-386.230,-218.750,0
1664550810.486,-217.773,29.785,-358.887,-223.633,0
1664550810.490,-209.961,37.598,-335.449,-219.238,0
1664550810.494,-194.336,15.625,-381.348,-210.938,0
1664550810.498,-185.059,0.977,-461.426,-203.613,0
1664550810.502,-189.453,26.367,-433.105,-215.332,0
1664550810.505,-181.641,56.641,-342.773,-211.426,0
1664550810.509,-171.875,42.480,-414.062,-185.059,0
1664550810.513,-170.898,21.973,-506.348,-166.504,0
1664550810.517,-168.945,61.523,-359.863,-176.270,0
1664550810.521,-141.602,61.523,-317.871,-185.547,0
1664550810.523,-124.023,40.527,-406.250,-167.969,0
1664550810.527,-141.113,42.969,-432.617,-139.160,0
1664550810.531,-137.207,54.199,-355.469,-136.719,0
1664550810.535,-134.766,53.711,-362.793,-144.531,0
1664550810.539,-117.188,44.434,-393.555,-141.602,0
1664550810.543,-96.680,43.457,-435.547,-119.141,0
1664550810.547,-99.609,45.410,-445.801,-107.910,0
1664550810.550,-92.285,53.711,-407.227,-123.535,0
1664550810.554,-100.586,35.156,-512.695,-104.492,0
1664550810.558,-105.957,51.758,-483.398,-90.332,0
1664550810.562,-98.145,93.750,-293.457,-97.656,0
1664550810.566,-79.590,71.777,-340.820,-88.379,0
1664550810.568,-63.477,72.754,-380.371,-91.797,0
1664550810.572,-73.730,88.867,-328.125,-83.984,0
1664550810.576,-83.984,92.285,-330.078,-81.055,0
1664550810.580,-78.613,89.844,-373.535,-101.562,0
1664550810.584,-59.570,84.961,-399.902,-107.910,0
1664550810.588,-49.805,90.820,-412.109,-89.355,0
1664550810.592,-63.477,125.977,-333.496,-78.613,0
1664550810.595,-59.082,132.812,-373.535,-82.031,0
1664550810.599,-79.102,106.445,-479.004,-81.055,0
1664550810.603,-96.680,144.043,-365.723,-84.473,0
1664550810.607,-67.383,144.043,-340.332,-84.961,0
1664550810.611,-54.199,125.000,-426.758,-92.285,0
1664550810.613,-64.941,142.578,-443.359,-101.562,0
1664550810.617,-62.500,163.574,-335.449,-100.586,0
1664550810.621,-39.551,156.738,-332.520,-92.773,0
1664550810.625,-45.898,137.207,-345.215,-83.008,0
1664550810.629,-66.406,130.859,-402.344,-84.961,0
1664550810.633,-66.406,132.812,-412.109,-88.867,0
1664550810.637,-44.922,143.555,-365.723,-85.938,0
1664550810.640,-36.621,121.582,-496.582,-66.406,0
1664550810.644,-49.316,136.230,-482.422,-63.965,0
1664550810.648,-32.715,180.176,-299.316,-72.754,0
1664550810.652,-26.855,157.715,-322.266,-63.965,0
1664550810.656,-26.367,140.137,-364.258,-48.828,0
1664550810.658,-14.648,135.742,-366.699,-45.410,0
1664550810.662,-3.418,144.531,-335.449,-47.852,0
1664550810.666,11.230,137.695,-315.430,-38.086,0
1664550810.670,25.391,134.277,-311.035,-11.719,0
1664550810.674,33.203,137.695,-303.223,-0.488,0
1664550810.678,39.062,118.164,-350.098,-1.465,0
1664550810.682,60.059,101.562,-403.320,6.836,0
1664550810.685,78.613,93.750,-416.992,30.273,0
1664550810.689,74.219,131.836,-311.523,44.922,0
1664550810.693,71.777,133.789,-263.672,38.574,0
1664550810.697,82.031,101.562,-345.703,40.527,0
1664550810.701,86.914,104.004,-340.332,45.410,0
1664550810.702,87.402,117.676,-219.238,54.688,0
1664550810.706,97.656,102.051,-251.465,72.266,0
1664550810.710,90.820,73.242,-348.633,74.707,0
1664550810.714,86.914,76.172,-336.426,71.289,0
1664550810.718,100.586,88.379,-307.129,70.801,0
1664550810.722,92.773,78.125,-321.777,66.406,0
1664550810.726,84.961,31.738,-447.754,60.059,0
1664550810.729,108.398,48.828,-464.355,72.266,0
1664550810.733,120.117,111.328,-220.703,80.566,0
1664550810.737,101.074,69.824,-288.086,77.637,0
1664550810.741,104.980,46.875,-350.098,71.289,0
1664550810.745,103.027,58.594,-302.246,73.242,0
1664550810.747,96.191,53.711,-277.832,88.379,0
1664550810.751,97.168,27.832,-291.016,90.332,0
1664550810.755,85.938,10.254,-333.496,62.500,0
1664550810.759,80.078,25.391,-306.641,43.457,0
1664550810.763,90.332,20.508,-309.082,44.434,0
1664550810.767,102.539,-4.883,-372.559,57.617,0
1664550810.771,88.867,-6.836,-389.648,61.523,0
1664550810.774,66.895,12.695,-329.102,54.688,0
1664550810.778,71.289,20.996,-274.902,63.477,0
1664550810.782,89.844,-11.230,-390.137,72.754,0
1664550810.786,94.238,-23.438,-471.680,76.660,0
1664550810.790,85.938,12.207,-331.543,70.312,0
1664550810.792,86.426,8.301,-298.340,69.824,0
1664550810.796,91.797,-13.672,-355.957,80.078,0
1664550810.800,90.332,-14.160,-353.516,80.078,0
1664550810.804,88.379,-3.906,-297.363,58.594,0
1664550810.808,98.145,-8.301,-280.762,55.664,0
1664550810.812,87.402,-48.828,-411.621,84.473,0
1664550810.816,82.031,-48.340,-475.098,92.773,0
1664550810.819,82.520,-16.602,-357.910,79.102,0
1664550810.823,79.590,-21.973,-364.258,80.566,0
1664550810.827,88.867,-26.855,-362.793,96.680,0
1664550810.831,98.633,-13.672,-304.688,96.191,0
1664550810.835,104.004,-6.348,-287.109,82.520,0
1664550810.853,100.586,-26.367,-342.285,76.172,0
1664550810.857,83.008,-28.320,-347.168,75.195,0
1664550810.861,76.172,-17.090,-315.918,84.961,0
1664550810.865,82.520,-23.438,-326.172,83.008,0
1664550810.869,71.777,-43.457,-370.605,60.059,0
1664550810.873,60.547,-53.711,-395.508,58.105,0
1664550810.877,63.477,-30.762,-354.980,64.941,0
1664550810.880,71.289,-10.742,-295.410,63.965,0
1664550810.884,68.848,-40.039,-376.953,54.688,0
1664550810.888,68.359,-63.965,-502.930,54.688,0
1664550810.892,75.195,-20.508,-416.992,58.594,0
1664550810.896,65.918,-11.230,-361.816,50.781,0
1664550810.898,39.062,-33.203,-414.551,43.457,0
1664550810.902,41.016,-31.250,-441.406,38.574,0
1664550810.906,49.316,-20.996,-374.023,46.387,0
1664550810.910,53.223,-27.344,-344.727,51.758,0
1664550810.914,55.664,-47.363,-381.348,47.363,0
1664550810.918,49.805,-51.758,-419.434,47.363,0
1664550810.922,55.664,-45.898,-409.668,53.223,0
1664550810.925,65.918,-40.039,-374.023,46.387,0
1664550810.929,62.500,-66.406,-476.074,45.410,0
1664550810.933,48.828,-56.152,-528.809,39.551,0
1664550810.937,38.574,-4.395,-364.746,21.484,0
1664550810.941,46.387,-21.484,-384.277,30.762,0
1664550810.943,43.945,-38.574,-409.668,42.969,0
1664550810.947,28.809,-25.391,-382.324,29.297,0
1664550810.951,33.203,-15.625,-347.168,15.137,0
1664550810.955,41.504,-30.273,-357.910,30.273,0
1664550810.959,45.898,-37.598,-407.227,43.945,0
1664550810.963,42.969,-31.738,-418.945,40.039,0
1664550810.967,32.227,-18.555,-364.746,25.879,0
1664550810.970,39.551,-22.949,-383.301,30.273,0
1664550810.974,45.410,-46.387,-467.773,52.246,0
1664550810.978,44.922,-8.789,-377.930,38.574,0
1664550810.982,36.621,-0.488,-333.984,15.137,0
1664550810.986,34.180,-25.879,-424.805,25.879,0
1664550810.988,38.574,-16.113,-412.598,41.504,0
1664550810.992,34.668,-3.906,-327.148,33.691,0
1664550810.996,36.133,-30.762,-402.344,16.113,0
1664550811.000,31.738,-34.180,-395.996,19.531,0
1664550811.004,23.926,-8.789,-311.035,28.809,0
1664550811.008,26.367,-18.555,-353.027,36.621,0
1664550811.012,38.086,-17.578,-348.633,29.785,0
1664550811.015,31.738,-44.922,-458.984,31.738,0
1664550811.019,20.508,-31.250,-481.934,41.016,0
1664550811.023,31.250,26.855,-291.016,36.133,0
1664550811.027,41.016,-2.930,-347.656,33.691,0
1664550811.031,26.855,-11.230,-379.395,22.949,0
1664550811.032,19.531,6.348,-320.312,20.996,0
1664550811.036,22.949,9.277,-291.992,31.250,0
1664550811.040,13.672,-9.277,-315.430,23.926,0
1664550811.044,21.484,-17.578,-342.285,6.348,0
1664550811.048,22.461,-4.395,-351.562,10.742,0
1664550811.052,9.277,-7.324,-356.934,23.438,0
1664550811.056,12.695,-19.043,-395.996,23.438,0
1664550811.059,0.000,-24.414,-460.938,11.230,0
1664550811.063,-8.301,15.625,-367.676,-7.324,0
1664550811.067,-0.488,19.043,-311.035,-10.742,0
1664550811.071,3.906,-12.695,-398.438,-1.953,0
1664550811.075,-7.812,-15.625,-416.504,-3.906,0
1664550811.078,-18.555,4.883,-325.684,-6.836,0
1664550811.082,-12.207,0.977,-326.660,-4.883,0
1664550811.086,0.000,-19.531,-366.699,-4.883,0
1664550811.090,0.000,-5.859,-329.590,-12.695,0
1664550811.094,2.930,-3.906,-324.219,-15.625,0
1664550811.098,6.348,-18.066,-392.578,-13.184,0
1664550811.102,3.418,-37.598,-475.098,3.906,0
1664550811.105,-0.977,-32.227,-506.836,12.695,0
1664550811.109,-16.602,24.902,-329.590,-11.719,0
1664550811.113,-7.324,25.391,-319.336,-13.672,0
1664550811.117,0.977,2.930,-356.445,-5.371,0
1664550811.121,-0.488,9.766,-299.805,-7.324,0
1664550811.122,-0.488,14.160,-302.246,-4.395,0
1664550811.126,1.465,-9.277,-352.051,-16.602,0
1664550811.130,-1.465,-13.184,-353.516,-17.090,0
1664550811.134,-8.301,6.836,-322.266,10.254,0
1664550811.138,-20.020,0.977,-336.426,2.930,0
1664550811.142,-18.066,-32.715,-430.664,-12.695,0
1664550811.146,-13.672,-42.969,-468.750,1.465,0
1664550811.149,-12.207,0.488,-343.262,11.719,0
1664550811.153,0.488,2.441,-325.684,-0.977,0
1664550811.157,-2.930,-31.738,-423.828,-13.672,0
1664550811.161,5.371,-20.020,-410.645,-9.766,0
1664550811.165,-5.859,2.930,-302.246,-7.324,0
1664550811.167,-17.578,-5.859,-284.180,-6.836,0
1664550811.171,-15.625,-22.461,-353.516,-16.113,0
1664550811.175,-24.414,-16.602,-379.883,-17.090,0
1664550811.179,-14.160,0.977,-305.176,1.465,0
1664550811.183,-5.859,-10.254,-302.734,0.977,0
1664550811.187,-18.066,-46.387,-447.266,-9.766,0
1664550811.191,-17.090,-28.320,-458.496,-17.578,0
1664550811.194,-0.977,10.742,-325.195,-14.160,0
1664550811.198,-7.812,-0.977,-334.961,-16.602,0
1664550811.202,-21.973,-24.414,-374.512,-22.949,0
1664550811.206,-20.020,-2.930,-341.797,-25.391,0
1664550811.210,-10.742,3.418,-346.680,-20.508,0
1664550811.228,-0.488,-18.066,-356.934,-8.301,0
1664550811.232,1.465,-6.348,-336.426,-11.230,0
1664550811.236,0.977,5.371,-327.637,-20.020,0
1664550811.240,-4.395,14.648,-333.984,-18.555,0
1664550811.244,-23.438,9.766,-345.703,-14.648,90
1664550811.248,-23.926,-9.277,-371.094,-17.578,0
1664550811.252,-26.855,14.160,-349.121,-24.414,0
1664550811.255,-26.855,34.668,-290.039,-29.297,0
1664550811.259,-7.324,-1.465,-389.648,-12.695,0
1664550811.263,-0.977,-5.371,-458.984,7.324,0
1664550811.267,5.371,38.086,-337.402,-2.441,0
1664550811.271,-2.930,29.785,-291.992,-6.348,0
1664550811.273,-26.367,2.930,-383.301,-1.953,0
1664550811.277,-9.766,0.000,-450.684,-0.977,0
1664550811.281,-1.953,15.137,-354.492,-2.930,0
1664550811.285,-11.719,20.508,-313.477,-19.043,0
1664550811.289,-13.184,6.348,-341.309,-17.578,0
1664550811.293,6.348,-0.488,-375.977,3.906,0
1664550811.297,16.602,9.766,-367.676,4.883,0
1664550811.300,-6.348,17.090,-318.848,-10.742,0
1664550811.304,-1.465,-25.391,-456.055,-0.977,0
1664550811.308,9.277,-8.789,-454.590,8.789,0
1664550811.312,-12.695,28.809,-311.035,-8.301,0
1664550811.316,-12.207,0.488,-358.398,-12.695,0
1664550811.318,1.465,16.602,-323.242,-11.230,0
1664550811.322,21.973,27.344,-310.547,-1.465,0
1664550811.326,20.508,19.531,-297.363,0.000,0
1664550811.330,0.488,-0.977,-337.402,-10.742,0
1664550811.334,5.371,-11.230,-382.324,-13.672,0
1664550811.338,10.254,-7.812,-414.062,-12.207,0
1664550811.342,-4.883,11.719,-376.953,-2.441,0
1664550811.345,0.000,8.301,-318.848,-18.066,0
1664550811.349,1.465,-22.461,-384.766,-27.344,0
1664550811.353,-9.277,16.113,-310.547,-24.902,0
1664550811.357,1.953,24.902,-222.168,-21.973,0
1664550811.361,2.930,-11.230,-340.332,-13.672,0
1664550811.362,-12.695,-10.742,-412.109,-23.438,0
1664550811.366,-19.043,15.625,-316.406,-25.879,0
1664550811.370,-17.090,10.742,-307.129,-9.277,0
1664550811.374,-14.648,-16.113,-333.984,-21.973,0
1664550811.378,-28.320,-17.090,-376.953,-33.203,0
1664550811.382,-31.738,-14.648,-422.363,-33.203,0
1664550811.386,-15.137,-3.906,-343.262,-33.691,0
1664550811.389,-20.996,-35.156,-461.426,-8.789,0
1664550811.393,-31.250,-26.855,-498.535,-19.043,0
1664550811.397,-24.902,28.320,-285.156,-40.527,0
1664550811.401,-21.973,7.812,-328.613,-21.973,0
1664550811.405,-13.184,-11.230,-402.344,-15.137,0
1664550811.408,-5.859,7.812,-322.754,-21.484,0
1664550811.412,-11.719,9.277,-317.383,-24.414,0
1664550811.416,-11.719,-16.113,-374.023,-22.461,0
1664550811.420,-7.812,-11.719,-332.031,-24.902,0
1664550811.424,-8.789,2.441,-317.383,-21.973,0
1664550811.428,-2.930,-11.719,-384.277,-18.066,0
1664550811.432,-20.508,-14.160,-378.906,-24.414,0
1664550811.435,-23.438,-22.461,-366.699,-7.812,0
1664550811.439,-11.719,0.000,-336.914,-6.836,0
1664550811.443,-18.066,14.160,-307.617,-31.738,0
1664550811.447,-14.160,0.000,-335.938,-22.949,0
1664550811.451,-2.930,3.418,-329.590,-8.301,0
1664550811.453,-14.160,13.672,-228.516,-9.766,0
1664550811.457,-16.602,3.906,-258.301,-9.766,0
1664550811.461,-17.578,-14.648,-304.688,-10.742,0
1664550811.465,-5.371,-8.301,-295.410,-13.184,0
1664550811.469,18.066,-6.348,-288.086,-4.883,0
1664550811.473,-2.441,-18.555,-355.469,-4.395,0
1664550811.477,-14.648,-44.434,-481.934,-4.395,0
1664550811.480,-0.977,-30.273,-480.469,-3.906,0
1664550811.484,1.465,25.391,-268.555,-15.137,0
1664550811.488,-2.930,2.441,-294.922,-15.625,0
1664550811.492,-6.836,-14.648,-386.230,-19.043,0
1664550811.496,-3.418,0.977,-345.215,-24.902,0
1664550811.498,-2.930,20.020,-284.180,-20.020,0
1664550811.502,-10.742,11.719,-285.645,-12.207,0
1664550811.506,-14.648,6.348,-287.109,-19.531,0
1664550811.510,-2.930,16.113,-297.363,-23.926,0
1664550811.514,-2.930,4.395,-316.895,-19.531,0
1664550811.518,-4.883,-16.113,-378.906,-14.160,0
1664550811.522,-3.418,-24.902,-426.758,-11.230,0
1664550811.525,-16.113,12.207,-339.844,-19.043,0
1664550811.529,-5.859,28.809,-289.062,-22.949,0
1664550811.533,8.301,-0.977,-363.770,-8.301,0
1664550811.537,-8.301,-3.418,-403.320,-5.859,0
1664550811.541,-17.090,6.348,-324.219,-24.902,0
1664550811.543,7.812,-13.672,-320.801,-26.367,0
1664550811.547,-5.859,-29.785,-375.488,-13.184,0
1664550811.551,-32.227,-23.438,-385.742,-14.648,0
1664550811.555,-18.066,-8.789,-309.570,-23.926,0
1664550811.559,-13.672,-15.625,-296.387,-27.344,0
1664550811.563,-22.949,-60.547,-462.402,-9.766,0
1664550811.567,-8.789,-51.758,-462.891,2.441,0
1664550811.570,-12.695,-5.371,-296.875,-12.207,0
1664550811.574,-23.926,-18.555,-322.754,-25.391,0
1664550811.578,-19.531,-32.715,-364.746,-21.484,0
1664550811.582,-8.301,-20.996,-341.309,-8.301,0
1664550811.586,-7.324,-15.137,-310.059,-12.207,0
1664550811.603,-14.648,-28.809,-335.449,-22.949,0
1664550811.607,-1.953,-25.391,-346.680,-13.184,0
1664550811.611,-5.859,-10.254,-313.477,0.000,0
1664550811.615,-0.488,-22.949,-359.863,-2.441,0
1664550811.619,-4.883,-30.762,-405.273,-14.160,0
1664550811.623,-18.066,-30.762,-403.320,-6.836,0
1664550811.627,-11.719,-2.930,-336.426,-2.930,0
1664550811.630,0.000,12.207,-281.738,-12.695,0
1664550811.634,-4.395,-24.902,-399.414,-11.719,0
1664550811.638,-10.254,-27.344,-437.500,-0.977,0
1664550811.642,-4.883,12.695,-320.312,3.418,0
1664550811.646,-0.977,13.184,-294.434,-6.836,0
1664550811.648,-3.906,-12.695,-394.043,-8.301,0
1664550811.652,-11.230,-15.137,-431.152,-15.137,0
1664550811.656,-15.137,9.277,-318.848,-20.508,0
1664550811.660,-6.348,8.789,-301.758,-10.254,0
1664550811.664,-1.953,-13.184,-342.773,-11.230,0
1664550811.668,-11.230,-21.484,-408.203,-16.113,0
1664550811.672,-4.395,-2.441,-407.715,-12.207,0
1664550811.675,-6.348,8.301,-366.211,-17.090,0
1664550811.679,-17.090,-22.949,-483.887,-12.207,0
1664550811.683,-26.855,-10.742,-504.395,-14.160,0
1664550811.687,-15.137,34.668,-320.801,-25.879,0
1664550811.691,-9.277,12.207,-323.730,-10.742,0
1664550811.692,-25.879,3.418,-353.516,-3.418,0
1664550811.696,-20.996,12.207,-330.566,-18.555,0
1664550811.700,-18.555,8.301,-312.012,-28.320,0
1664550811.704,-15.137,0.000,-333.496,-16.602,0
1664550811.708,-12.207,-6.836,-364.258,-6.348,0
1664550811.712,-16.602,-8.301,-396.484,-13.672,0
1664550811.716,-18.066,8.301,-333.008,-22.949,0
1664550811.719,-11.719,1.953,-343.262,-12.207,0
1664550811.723,-12.695,-24.902,-452.637,0.488,0
1664550811.727,-10.742,18.555,-341.309,-6.836,0
1664550811.731,-19.531,19.531,-316.895,-22.949,0
1664550811.735,-22.949,-14.648,-410.156,-19.531,0
1664550811.738,-10.742,-5.859,-390.625,-10.742,0
1664550811.742,-6.836,16.113,-299.316,-12.207,0
1664550811.746,-26.367,11.230,-283.203,-20.996,0
1664550811.750,-28.320,-7.812,-325.684,-32.715,0
1664550811.754,-20.508,2.441,-308.105,-16.602,0
1664550811.758,-8.789,1.465,-313.477,-7.324,0
1664550811.762,-10.254,-1.465,-321.289,-23.438,0
1664550811.765,-14.160,-33.691,-459.961,-20.996,0
1664550811.769,-7.812,-16.602,-459.473,-12.207,0
1664550811.773,-11.719,38.086,-251.953,-11.230,0
1664550811.777,-11.719,9.766,-302.734,-15.137,0
1664550811.781,-17.090,-3.906,-383.789,-31.250,0
1664550811.782,-2.441,7.324,-323.730,-24.414,0
1664550811.786,4.883,9.766,-290.039,-12.207,0
1664550811.790,-12.207,-7.324,-355.957,-20.020,0
1664550811.794,-13.184,-15.137,-386.230,-33.691,0
1664550811.798,-20.508,-4.395,-358.398,-28.320,0
1664550811.802,-18.555,-15.625,-405.762,-12.695,0
1664550811.806,-16.113,-24.414,-417.969,-15.137,0
1664550811.809,-17.090,-27.832,-430.176,-27.344,0
1664550811.813,-19.043,12.207,-357.910,-29.785,0
1664550811.817,-15.137,20.020,-295.410,-21.484,0
1664550811.821,-8.301,-16.602,-382.812,-3.906,0
1664550811.825,-19.531,-20.996,-410.645,-7.324,0
1664550811.827,-9.766,1.953,-317.871,-14.160,0
1664550811.831,-16.113,-13.672,-336.914,0.000,0
1664550811.835,-20.996,-24.902,-375.977,-4.395,0
1664550811.839,-9.766,-0.977,-346.191,-13.184,0
1664550811.843,-19.043,-2.930,-357.910,-15.137,0
1664550811.847,-3.418,-10.742,-375.977,-14.648,0
1664550811.851,6.348,-35.645,-460.449,7.324,0
1664550811.854,-15.137,-31.250,-494.629,13.184,0
1664550811.858,-25.391,22.461,-297.363,-9.766,0
1664550811.862,-4.883,-1.953,-330.078,-10.742,0
1664550811.866,3.418,-20.020,-380.371,-3.906,0
1664550811.870,-16.113,-8.301,-337.891,-11.719,0
1664550811.872,-22.461,-8.789,-321.289,-18.066,0
1664550811.876,-13.184,-22.949,-346.191,-14.648,0
1664550811.880,-11.230,-28.809,-369.629,-10.742,0
1664550811.884,-16.602,-25.391,-390.625,-3.906,0
1664550811.888,-16.602,-22.949,-378.906,5.859,0
1664550811.892,-22.949,-27.344,-389.160,-5.859,0
1664550811.896,-18.066,-39.062,-420.898,-9.277,0
1664550811.899,-11.719,-8.301,-348.145,-1.465,0
1664550811.903,-15.137,6.348,-290.527,-6.836,0
1664550811.907,-16.602,-23.926,-357.910,-13.672,0
1664550811.911,-10.254,-25.391,-401.367,-10.254,0
1664550811.915,-10.254,1.953,-312.500,-4.395,0
1664550811.918,-21.484,-9.766,-307.129,-5.859,0
1664550811.922,-20.996,-29.785,-386.230,-1.953,0
1664550811.926,-12.207,-19.531,-389.160,-2.930,0
1664550811.930,-9.277,-5.859,-318.359,-3.906,0
1664550811.934,-15.137,-7.812,-329.102,-6.348,0
1664550811.938,-23.926,-44.434,-462.891,-9.766,0
1664550811.942,-14.160,-32.227,-486.328,-13.184,0
1664550811.945,-17.578,2.930,-354.492,-21.484,0
1664550811.949,-25.391,-12.695,-377.441,-16.602,0
1664550811.953,-30.762,-24.902,-411.621,-13.672,0
1664550811.957,-18.555,-0.977,-347.168,-18.555,0
1664550811.961,-15.137,15.625,-288.574,-18.555,0
1664550811.978,-23.438,-9.766,-330.566,-14.160,0
1664550811.982,-16.602,-10.742,-358.887,-25.391,0
1664550811.986,-15.625,-0.488,-336.914,-34.180,0
1664550811.990,-11.230,2.441,-305.176,-20.020,0
1664550811.994,-4.883,-8.301,-339.355,-10.254,0
1664550811.998,-2.441,-26.855,-387.695,0.000,0
1664550812.002,4.395,2.441,-338.379,-14.648,0
1664550812.005,3.418,25.879,-299.316,-25.391,0
1664550812.009,1.465,5.371,-335.938,-0.488,0
1664550812.013,0.000,-1.953,-376.465,5.859,0
1664550812.017,-8.301,27.832,-309.082,-8.301,0
1664550812.021,-17.090,19.531,-276.855,-16.113,0
1664550812.023,-12.695,-7.812,-376.953,-11.230,0
1664550812.027,-6.836,5.859,-411.133,2.930,0
1664550812.031,-1.953,28.320,-311.523,-5.371,0
1664550812.035,-7.812,23.926,-318.848,-20.996,0
1664550812.039,-14.648,3.418,-356.445,-8.301,0
1664550812.043,-14.160,1.953,-400.879,4.395,0
1664550812.047,-14.160,12.207,-399.902,-8.301,0
1664550812.050,-20.996,13.184,-351.562,-27.344,0
1664550812.054,-23.926,-17.578,-470.703,-13.184,0
1664550812.058,-15.137,-4.883,-488.770,9.277,0
1664550812.062,-15.137,36.133,-325.195,-5.371,0
1664550812.066,-17.090,10.254,-346.191,-22.949,0
1664550812.068,-20.508,15.137,-308.594,-26.855,0
1664550812.072,-15.137,20.508,-282.715,-24.902,0
1664550812.076,-14.160,15.137,-289.551,-22.461,0
1664550812.080,-17.090,2.441,-288.574,-23.926,0
1664550812.084,-16.602,0.488,-306.152,-19.531,0
1664550812.088,-14.160,0.977,-349.609,-9.277,0
1664550812.092,-8.789,14.160,-358.398,-7.324,0
1664550812.095,-14.160,13.672,-350.586,-12.695,0
1664550812.099,-24.414,-16.113,-421.875,-6.348,0
1664550812.103,-8.301,24.902,-380.859,-4.883,0
1664550812.107,-0.977,39.062,-306.641,-6.836,0
1664550812.111,-17.090,5.371,-390.137,-15.625,0
1664550812.113,-15.625,-4.883,-471.680,-22.949,0
1664550812.117,-10.742,20.996,-376.953,-27.832,0
1664550812.121,-11.230,33.203,-333.496,-20.996,0
1664550812.125,-11.230,20.996,-364.746,-17.090,0
1664550812.129,-4.395,19.531,-399.414,-23.438,0
1664550812.133,-2.930,15.137,-429.688,-14.648,0
1664550812.137,-2.930,20.020,-378.906,-2.930,0
1664550812.140,10.742,-16.602,-504.395,3.418,0
1664550812.144,-3.418,-4.395,-515.137,-4.395,0
1664550812.148,-32.715,49.805,-291.504,-32.227,0
1664550812.152,-19.531,26.367,-319.336,-29.297,0
1664550812.156,-6.836,17.578,-352.539,-14.648,0
1664550812.158,-10.254,22.949,-339.355,-18.555,0
1664550812.162,13.184,19.043,-318.848,-1.953,0
1664550812.166,40.527,-2.930,-364.746,20.996,0
1664550812.170,22.949,2.930,-380.371,20.508,0
1664550812.174,0.000,34.180,-343.262,1.465,0
1664550812.178,-11.230,32.227,-394.531,-9.766,0
1664550812.182,-15.625,36.621,-401.855,-14.648,0
1664550812.185,-16.602,32.715,-417.969,-8.301,0
1664550812.189,-14.648,70.312,-335.449,-13.672,0
1664550812.193,-7.324,88.379,-281.738,-36.133,0
1664550812.197,-5.859,56.641,-382.324,-33.691,0
1664550812.201,-0.488,59.570,-397.949,-18.066,0
1664550812.204,16.602,76.660,-315.918,-16.113,0
1664550812.208,12.695,78.613,-295.410,-30.273,0
1664550812.212,-4.883,55.664,-363.770,-33.203,0
1664550812.216,2.441,57.129,-369.629,-16.113,0
1664550812.220,0.977,63.965,-329.590,-4.395,0
1664550812.224,16.113,40.039,-369.141,-7.812,0
1664550812.228,20.020,12.207,-463.379,-4.883,0
1664550812.231,6.348,21.484,-495.117,-0.488,0
1664550812.235,11.719,76.172,-290.039,-7.324,0
1664550812.239,5.371,61.035,-285.156,-15.137,0
1664550812.243,1.953,45.410,-334.473,-24.414,71
1664550812.247,0.488,48.340,-294.434,-20.508,0
1664550812.247,13.672,40.039,-309.082,-6.348,0
1664550812.251,20.020,25.391,-336.914,-4.395,0
1664550812.255,1.465,16.113,-336.426,-11.719,0
1664550812.259,9.766,30.273,-303.711,-16.602,0
1664550812.263,12.207,25.391,-307.617,-5.859,0
1664550812.267,-3.418,-0.488,-366.699,-2.441,0
1664550812.271,1.465,-6.348,-410.156,-10.254,0
1664550812.274,0.977,32.715,-362.305,-14.160,0
1664550812.278,4.883,52.734,-295.410,-16.113,0
1664550812.282,9.277,25.879,-354.004,-7.812,0
1664550812.286,-1.465,19.531,-396.973,-13.672,0
1664550812.290,-9.277,38.574,-312.500,-20.996,0
1664550812.294,-18.066,25.879,-333.984,-8.789,0
1664550812.298,-11.230,2.441,-401.367,-5.371,0
1664550812.302,6.348,13.184,-395.996,-12.207,0
1664550812.306,1.953,40.527,-312.500,-19.531,0
1664550812.310,-9.766,26.855,-347.168,-16.602,0
1664550812.314,-5.371,-15.625,-461.426,-4.395,0
1664550812.318,-9.766,-10.742,-486.816,7.324,0
1664550812.321,-12.207,30.762,-382.812,-6.348,0
1664550812.325,-5.859,32.715,-332.520,-23.438,0
1664550812.329,5.859,0.977,-403.809,-9.766,0
1664550812.333,9.766,25.391,-390.625,1.953,0
1664550812.337,-10.254,69.336,-291.504,-20.020,0
1664550812.352,-17.090,49.316,-325.195,-21.484,0
1664550812.356,0.977,40.527,-351.074,-2.930,0
1664550812.360,9.766,54.688,-328.613,-5.859,0
1664550812.364,-3.418,49.316,-308.105,-12.695,0
1664550812.368,-12.207,27.832,-331.055,-20.020,0
1664550812.372,-22.949,13.184,-382.324,-24.902,0
1664550812.376,-17.578,29.785,-360.352,-16.113,0
1664550812.379,-10.742,54.688,-276.367,-18.555,0
1664550812.383,-9.766,31.250,-350.098,-27.832,0
1664550812.387,-7.324,13.672,-444.824,-23.926,0
1664550812.391,-8.301,53.223,-325.684,-23.438,0
1664550812.395,-6.836,53.711,-292.480,-22.949,0
1664550812.398,-10.254,21.484,-414.062,-17.578,0
1664550812.402,-19.531,21.973,-416.992,-27.832,0
1664550812.406,-20.508,38.086,-317.383,-16.113,0
1664550812.410,-11.230,34.180,-343.262,1.465,0
1664550812.414,-14.160,12.695,-378.906,-20.996,0
1664550812.418,-18.066,8.789,-389.648,-27.344,0
1664550812.422,-16.113,23.926,-411.133,-12.207,0
1664550812.425,-8.789,27.832,-386.230,-3.418,0
1664550812.429,-15.137,-5.859,-493.164,-8.789,0
1664550812.433,-23.926,7.324,-536.621,-19.043,0
1664550812.437,-14.648,65.430,-312.988,-27.344,0
1664550812.441,-6.348,34.180,-341.309,-20.996,0
1664550812.442,-2.930,20.020,-378.906,-13.672,0
1664550812.446,-11.719,32.715,-332.520,-20.996,0
1664550812.450,-12.695,20.996,-362.793,-18.066,0
1664550812.454,-9.277,7.324,-364.746,-10.254,0
1664550812.458,-16.602,10.254,-351.562,-18.555,0
1664550812.462,-13.672,4.883,-405.762,-24.902,0
1664550812.466,-1.953,22.461,-365.234,-16.113,0
1664550812.469,14.648,29.785,-385.742,6.836,0
1664550812.473,11.230,6.348,-442.383,18.066,0
1664550812.477,-28.809,29.297,-351.074,-14.160,0
1664550812.481,-51.270,35.645,-302.734,-44.922,0
1664550812.485,-51.270,-0.488,-392.090,-42.969,0
1664550812.487,-52.734,-14.648,-440.430,-40.527,0
1664550812.491,-56.152,4.395,-343.750,-38.086,0
1664550812.495,-74.219,1.953,-301.758,-49.316,0
1664550812.499,-83.984,-43.945,-403.320,-59.082,0
1664550812.503,-87.402,-46.387,-469.727,-48.340,0
1664550812.507,-76.172,-17.578,-418.945,-47.852,0
1664550812.511,-66.895,-27.344,-406.738,-52.246,0
1664550812.514,-64.941,-55.664,-506.836,-41.992,0
1664550812.518,-55.176,-33.203,-476.562,-35.156,0
1664550812.522,-53.711,8.789,-293.945,-43.457,0
1664550812.526,-43.945,-12.207,-347.656,-40.039,0
1664550812.530,-43.945,-13.672,-339.844,-41.016,0
1664550812.533,-47.363,-8.301,-272.949,-29.297,0
1664550812.537,-32.227,-21.973,-318.359,-16.602,0
1664550812.541,-33.203,-42.969,-370.117,-24.414,0
1664550812.545,-28.809,-37.598,-355.469,-35.645,0
1664550812.549,-27.344,-23.926,-345.703,-31.738,0
1664550812.553,-29.297,-34.668,-391.602,-7.324,0
1664550812.557,-22.949,-40.527,-411.621,-14.648,0
1664550812.560,-28.320,-52.246,-460.938,-24.414,0
1664550812.564,-26.855,-8.301,-369.141,-24.414,0
1664550812.568,-20.996,14.648,-287.109,-21.973,0
1664550812.572,-22.461,-22.461,-369.629,-13.672,0
1664550812.576,-29.297,-28.320,-409.180,-20.996,0
1664550812.578,-25.391,-6.348,-332.520,-23.438,0
1664550812.582,-17.578,-9.277,-309.570,-18.066,0
1664550812.586,-7.812,-25.879,-355.469,-1.465,0
1664550812.590,-3.906,-15.137,-360.840,-7.812,0
1664550812.594,-11.230,-7.812,-334.961,-21.484,0
1664550812.598,-13.184,-18.066,-322.266,-19.531,0
1664550812.602,1.465,-49.805,-435.547,-5.371,0
1664550812.605,-3.906,-37.598,-481.445,4.395,0
1664550812.609,-16.602,13.672,-307.617,-23.438,0
1664550812.613,-8.789,-20.508,-374.023,-21.484,0
1664550812.617,-0.977,-24.902,-394.531,-7.812,0
1664550812.621,-2.930,-8.789,-316.895,-4.883,0
1664550812.623,-8.789,-13.672,-330.078,-17.090,0
1664550812.627,-10.742,-25.391,-383.789,-25.879,0
1664550812.631,-2.441,-26.367,-385.742,-15.625,0
1664550812.635,-8.301,-8.789,-320.801,-17.090,0
1664550812.639,-19.043,-21.484,-347.656,-30.273,0
1664550812.643,-8.789,-38.574,-415.527,-33.691,0
1664550812.647,-4.883,-45.410,-436.035,-19.043,0
1664550812.650,-13.184,-7.324,-368.164,-6.348,0
1664550812.654,-3.906,8.789,-312.500,-10.254,0
1664550812.658,-2.930,-25.879,-402.832,-23.438,0
1664550812.662,-18.555,-23.926,-395.508,-25.391,0
1664550812.666,-26.855,-12.207,-326.172,-15.137,0
1664550812.668,-20.508,-26.367,-354.004,-20.020,0
1664550812.672,-18.066,-29.785,-409.180,-28.809,0
1664550812.676,-29.297,-13.672,-416.016,-22.949,0
1664550812.680,-19.043,3.418,-325.684,-18.066,0
1664550812.684,-15.625,-6.348,-326.172,-21.973,0
1664550812.688,-17.090,-48.340,-467.285,-18.555,0
1664550812.692,-7.812,-44.922,-529.785,-10.254,0
1664550812.695,-19.043,12.695,-331.055,-15.625,0
1664550812.699,-22.461,-2.441,-322.266,-18.555,0
1664550812.703,-28.320,-29.785,-415.039,-25.879,0
1664550812.707,-34.668,-2.441,-360.840,-35.156,0
1664550812.711,-30.273,11.719,-310.059,-29.297,0
1664550812.728,-27.344,-0.488,-331.543,-9.277,0
1664550812.732,-14.160,-7.324,-370.605,-12.695,0
1664550812.736,-12.207,-11.230,-395.996,-21.484,0
1664550812.740,-9.277,-8.301,-371.094,-6.836,0
1664550812.744,-12.207,-12.207,-348.145,-1.953,0
1664550812.748,-23.438,-23.438,-431.152,-16.113,0
1664550812.752,-35.645,12.207,-386.719,-50.293,0
1664550812.755,-49.805,39.062,-303.711,-53.223,0
1664550812.759,-25.391,9.277,-367.676,-19.043,0
1664550812.763,-4.883,-10.742,-443.848,3.418,0
1664550812.767,-8.789,26.855,-347.168,-8.789,0
1664550812.771,-9.766,23.926,-320.801,-21.484,0
1664550812.773,-2.441,-5.859,-428.711,-1.953,0
1664550812.777,-1.465,-2.441,-418.945,10.254,0
1664550812.781,0.488,17.090,-310.059,-1.465,0
1664550812.785,-0.977,4.883,-344.727,-8.789,0
1664550812.789,-7.812,-17.578,-390.625,-1.953,0
1664550812.793,-5.859,-12.207,-402.832,1.465,0
1664550812.797,-6.836,2.930,-394.531,-7.324,0
1664550812.800,-8.301,6.348,-377.441,-20.996,0
1664550812.804,-2.930,-29.297,-522.461,-13.184,0
1664550812.808,3.906,-8.301,-503.418,5.371,0
1664550812.812,1.953,53.711,-285.645,-9.277,0
1664550812.816,-12.695,22.461,-337.891,-30.273,0
1664550812.818,-11.719,9.277,-354.980,-24.414,0
1664550812.822,2.930,19.043,-337.402,-10.742,0
1664550812.826,-0.977,19.531,-330.566,-8.789,0
1664550812.830,0.488,7.812,-323.730,-18.555,0
1664550812.834,-1.465,-6.836,-353.027,-25.391,0
1664550812.838,-14.648,-0.977,-365.234,-12.207,0
1664550812.842,-7.324,10.742,-334.961,4.395,0
1664550812.845,-4.395,-2.930,-389.160,-0.977,0
1664550812.849,-16.113,-18.066,-468.262,-11.719,0
1664550812.853,-12.207,29.785,-317.871,-10.254,0
1664550812.857,0.488,40.039,-241.211,-6.836,0
1664550812.861,-6.348,-1.465,-354.492,-8.301,0
1664550812.863,-11.230,-3.418,-359.375,-18.555,0
1664550812.867,-3.906,15.625,-275.391,-22.461,0
1664550812.871,4.395,4.395,-294.434,-12.207,0
1664550812.875,-0.977,-16.602,-331.543,-9.766,0
1664550812.879,-11.230,-14.160,-339.844,-19.531,0
1664550812.883,-9.277,-8.789,-347.168,-21.484,0
1664550812.887,-0.488,-6.836,-356.934,-4.883,0
1664550812.890,-3.418,-30.762,-458.008,5.371,0
1664550812.894,-2.441,-18.066,-467.285,-4.883,0
1664550812.898,4.395,19.531,-359.375,-11.230,0
1664550812.902,-4.395,4.395,-384.766,-5.371,0
1664550812.906,-3.906,0.488,-386.719,-4.395,0
1664550812.908,-1.465,13.672,-348.145,-14.160,0
1664550812.912,-17.090,11.230,-353.027,-26.855,0
1664550812.916,1.465,-5.371,-383.789,-16.602,0
1664550812.920,10.742,-1.953,-375.488,-6.348,0
1664550812.924,-4.883,8.301,-379.395,-13.672,0
1664550812.928,-15.625,-9.766,-431.641,-28.809,0
1664550812.932,-8.789,-10.742,-424.805,-25.879,0
1664550812.935,2.930,-6.348,-397.949,-4.883,0
1664550812.939,-12.207,21.973,-331.543,-7.812,0
1664550812.943,-17.578,30.273,-288.086,-22.461,0
1664550812.947,-9.766,-5.859,-362.305,-17.090,0
1664550812.951,-2.930,-19.531,-434.570,-3.418,0
1664550812.953,-3.906,1.953,-359.863,2.930,0
1664550812.957,-7.812,10.742,-317.383,-13.184,0
1664550812.961,-15.137,-16.113,-384.277,-27.344,0
1664550812.965,-20.508,-16.602,-395.020,-17.578,0
1664550812.969,-13.672,-7.812,-364.258,-11.230,0
1664550812.973,-18.066,-14.160,-382.324,-24.414,0
1664550812.977,-22.949,-47.852,-498.047,-25.391,0
1664550812.980,-24.414,-33.203,-497.559,-17.090,0
1664550812.984,-20.996,28.320,-314.453,-26.855,0
1664550812.988,-9.766,8.789,-317.871,-30.762,0
1664550812.992,-8.789,-9.766,-385.254,-24.414,0
1664550812.996,-18.555,0.488,-355.469,-19.043,0
1664550812.998,-10.254,10.254,-273.926,-21.484,0
1664550813.002,-1.465,-12.695,-346.191,-20.020,0
1664550813.006,-6.836,-12.207,-361.816,-20.020,0
1664550813.010,-17.578,11.230,-308.105,-20.020,0
1664550813.014,-20.020,2.441,-318.359,-13.184,0
1664550813.018,-12.207,-20.996,-365.234,-13.184,0
1664550813.022,-2.441,-35.156,-450.195,-9.766,0
1664550813.025,-10.742,7.324,-383.301,-15.625,0
1664550813.029,-20.508,24.902,-291.504,-19.043,0
1664550813.033,-8.301,-11.230,-361.328,-5.859,0
1664550813.037,-9.277,-21.973,-408.203,-5.859,0
1664550813.041,-7.324,-9.766,-354.492,-4.395,0
1664550813.042,-2.441,-9.277,-311.523,-0.488,0
1664550813.046,-23.926,-20.996,-391.113,-6.348,0
1664550813.050,-40.039,-11.230,-418.945,-17.090,0
1664550813.054,-20.508,6.348,-344.727,-28.809,0
1664550813.058,-6.348,-3.906,-383.301,-29.785,0
1664550813.062,-10.742,-23.926,-476.562,-10.742,0
1664550813.066,-4.395,-6.348,-470.215,-3.418,0
1664550813.069,-3.906,26.367,-354.980,-21.484,0
1664550813.073,-8.789,17.090,-344.727,-22.949,0
1664550813.077,0.977,-14.648,-412.598,-11.230,0
1664550813.081,9.277,2.441,-392.090,-7.324,0
1664550813.085,-1.953,25.391,-339.844,-15.625,0
1664550813.103,-18.066,3.906,-364.258,-32.715,0
1664550813.107,-18.066,-1.953,-387.695,-24.902,0
1664550813.111,-17.090,14.160,-345.215,0.488,0
1664550813.115,-15.625,13.672,-331.055,-13.184,0
1664550813.119,-13.184,-4.395,-354.980,-34.668,0
1664550813.123,-3.418,-12.207,-395.020,-18.066,0
1664550813.127,3.906,8.789,-399.902,-6.348,0
1664550813.130,-4.395,29.297,-327.637,-14.160,0
1664550813.134,-14.160,16.113,-368.164,-22.949,0
1664550813.138,-17.578,1.465,-429.199,-18.555,0
1664550813.142,-15.625,31.738,-355.469,-7.324,0
1664550813.146,-12.695,29.297,-316.895,-13.184,0
1664550813.148,-17.578,-4.395,-392.578,-23.438,0
1664550813.152,-19.531,-8.301,-464.844,-25.879,0
1664550813.156,-14.648,19.531,-343.262,-26.367,0
1664550813.160,-10.742,12.695,-322.266,-21.973,0
1664550813.164,-1.953,-12.207,-390.625,-13.184,0
1664550813.168,-8.301,-13.184,-396.973,-25.879,0
1664550813.172,-14.648,1.465,-377.441,-24.414,0
1664550813.175,-9.766,9.277,-346.191,-3.906,0
1664550813.179,-17.090,-21.973,-453.125,6.348,0
1664550813.183,-10.742,-12.207,-487.305,1.953,0
1664550813.187,-9.277,43.457,-268.555,-14.160,0
1664550813.191,-18.555,10.254,-316.406,-5.371,0
1664550813.193,-15.625,-7.812,-379.883,-8.301,0
1664550813.197,-9.766,11.230,-354.980,-16.602,0
1664550813.201,-8.789,20.508,-330.566,-10.742,0
1664550813.205,-6.348,5.371,-354.980,-4.883,0
1664550813.209,0.488,0.488,-385.254,-3.906,0
1664550813.213,-11.230,2.441,-402.344,-12.207,0
1664550813.217,-25.391,-0.488,-422.852,-24.902,0
1664550813.220,-25.879,0.000,-407.227,-20.996,0
1664550813.224,-12.207,-12.207,-414.551,-7.324,0
1664550813.228,-15.625,23.438,-339.844,-17.578,0
1664550813.232,-20.508,30.762,-307.129,-28.809,0
1664550813.236,-9.766,-4.395,-403.809,-25.391,0
1664550813.237,-3.906,4.395,-384.277,-16.602,0
1664550813.241,-3.418,26.855,-270.020,-8.789,0
1664550813.245,-16.602,15.625,-301.758,-21.484,0
1664550813.249,-19.043,-7.324,-381.836,-30.762,0
1664550813.253,-5.371,5.859,-401.855,-10.742,0
1664550813.257,-1.953,12.695,-392.578,-3.906,0
1664550813.261,-15.625,12.207,-357.910,-33.203,0
1664550813.264,-10.742,-22.461,-499.023,-32.715,0
1664550813.268,-7.324,-17.578,-516.113,-16.113,0
1664550813.272,-10.742,47.363,-296.387,-16.602,0
1664550813.276,-9.277,22.461,-324.219,-20.020,0
1664550813.280,-22.461,3.418,-357.422,-31.250,0
1664550813.282,-23.438,20.996,-312.988,-36.621,0
1664550813.286,-9.277,10.742,-348.145,-27.344,0
1664550813.290,-4.883,3.906,-363.281,-27.344,0
1664550813.294,-14.160,22.461,-319.336,-29.785,0
1664550813.298,-20.020,31.250,-324.707,-25.391,0
1664550813.302,-3.906,15.625,-376.953,-18.555,0
1664550813.306,2.930,10.742,-391.602,-17.578,0
1664550813.309,-1.465,0.000,-418.945,-13.184,0
1664550813.313,-8.301,25.879,-360.840,-10.742,0
1664550813.317,-12.207,40.039,-270.020,-17.578,0
1664550813.321,-4.883,-23.438,-370.605,-16.113,0
1664550813.325,-0.977,-44.922,-408.691,-22.461,0
1664550813.328,-0.977,-15.137,-293.457,-27.832,0
1664550813.332,5.371,-20.996,-311.035,-19.043,0
1664550813.336,3.418,-42.969,-391.113,-8.789,0
1664550813.340,-8.301,-40.527,-416.016,-14.160,0
1664550813.344,-20.996,-34.180,-403.320,-20.996,0
1664550813.348,-18.066,-35.156,-382.324,-19.531,0
1664550813.352,-6.348,-64.453,-471.191,-3.418,0
1664550813.355,-11.719,-53.711,-479.004,-2.441,0
1664550813.359,-6.348,1.953,-330.566,-16.602,0
1664550813.363,8.301,-14.648,-347.656,0.000,0
1664550813.367,23.926,-31.250,-389.648,19.043,0
1664550813.371,23.438,-14.648,-335.938,7.324,0
1664550813.373,-9.277,-16.602,-315.430,-12.695,0
1664550813.377,-9.766,-32.715,-369.629,-6.348,0
1664550813.381,2.930,-26.855,-362.793,6.348,0
1664550813.385,5.859,-16.113,-306.152,7.812,0
1664550813.389,10.254,-23.926,-334.473,6.348,0
1664550813.393,5.859,-41.016,-411.621,4.395,0
1664550813.397,12.695,-53.223,-449.707,19.531,0
1664550813.400,18.066,-18.555,-395.996,24.902,0
1664550813.404,7.324,4.883,-315.430,0.000,0
1664550813.408,-0.488,-23.438,-356.934,-13.184,0
1664550813.412,9.277,-29.297,-390.137,-0.488,0
1664550813.416,9.277,-7.812,-302.246,11.719,0
1664550813.417,1.465,-10.742,-267.578,6.348,0
1664550813.421,-0.977,-41.992,-390.137,0.488,0
1664550813.425,-6.348,-44.434,-427.246,-2.441,0
1664550813.429,-2.441,-19.531,-324.707,5.859,0
1664550813.433,-1.465,-15.137,-311.035,8.301,0
1664550813.437,-3.418,-59.082,-470.215,-2.441,0
1664550813.441,-3.906,-62.988,-531.738,-7.324,0
1664550813.444,-11.230,-4.395,-351.074,-9.766,0
1664550813.448,5.371,-14.648,-342.285,1.465,0
1664550813.452,2.441,-35.156,-381.348,3.906,0
1664550813.456,-10.742,-11.230,-321.777,-6.836,0
1664550813.460,-4.395,0.000,-278.809,-4.395,0
1664550813.477,0.000,-22.461,-333.008,4.883,0
1664550813.481,-10.254,-35.645,-376.953,-2.441,0
1664550813.485,-12.695,-23.438,-335.449,-16.602,0
1664550813.489,0.488,-14.648,-314.453,-13.672,0
1664550813.493,-0.977,-24.902,-317.871,2.930,0
1664550813.497,-10.254,-51.758,-383.301,-5.371,0
1664550813.501,-26.367,-26.367,-370.605,-24.414,0
1664550813.504,-23.926,1.953,-265.137,-23.926,0
1664550813.508,-6.348,-25.391,-304.688,-19.531,0
1664550813.512,-3.418,-34.668,-379.883,-8.789,0
1664550813.516,-17.578,-3.906,-324.707,-16.602,0
1664550813.520,-10.254,-12.207,-332.031,-34.180,0
1664550813.522,-12.207,-26.367,-363.770,-25.879,0
1664550813.526,-12.695,-21.484,-384.766,-16.113,0
1664550813.530,-11.230,-10.254,-291.504,-25.391,0
1664550813.534,-15.625,-13.184,-268.555,-36.621,0
1664550813.538,-12.207,-28.320,-337.402,-24.414,0
1664550813.542,-18.066,-29.297,-393.555,-12.695,0
1664550813.546,-15.137,-13.184,-350.098,-21.484,0
1664550813.549,-5.371,-8.301,-317.383,-28.809,0
1664550813.553,0.977,-39.062,-455.566,-21.484,0
1664550813.557,-10.742,-27.344,-486.816,-10.742,0
1664550813.561,-21.484,24.902,-288.086,-23.926,0
1664550813.565,-29.297,2.441,-293.457,-40.527,0
1664550813.567,-27.344,-21.484,-397.949,-42.969,0
1664550813.571,-11.230,-8.789,-384.277,-31.738,0
1664550813.575,-20.020,11.719,-339.844,-20.508,0
1664550813.579,-28.320,1.465,-345.703,-27.832,0
1664550813.583,-18.555,-15.137,-383.301,-28.320,0
1664550813.587,-10.254,-13.672,-415.527,-9.766,0
1664550813.591,-9.277,11.719,-356.445,2.930,0
1664550813.594,-9.766,7.324,-357.910,-7.324,0
1664550813.598,-18.066,-22.949,-421.387,-6.836,0
1664550813.602,-17.578,6.836,-366.211,-5.859,0
1664550813.606,-16.113,13.672,-304.688,-8.301,0
1664550813.610,-13.184,-8.789,-382.812,2.930,0
1664550813.612,-13.184,-7.324,-408.691,-6.836,0
1664550813.616,-18.555,4.883,-311.035,-15.625,0
1664550813.620,-5.371,3.418,-314.941,-4.883,0
1664550813.624,-2.441,-15.137,-361.816,-3.418,0
1664550813.628,-11.230,-20.020,-411.133,-16.113,0
1664550813.632,-22.949,-14.648,-420.410,-27.832,0
1664550813.636,-21.484,-10.254,-372.070,-20.996,0
1664550813.639,-11.230,-39.551,-488.770,-7.812,0
1664550813.643,-9.277,-20.996,-508.301,-17.090,0
1664550813.647,-15.137,38.086,-310.059,-37.598,0
1664550813.651,-20.996,9.766,-321.289,-30.273,0
1664550813.655,-12.207,-5.371,-362.793,-11.719,0
1664550813.659,-6.836,8.789,-333.496,-13.184,0
1664550813.663,-17.578,9.766,-327.637,-19.043,0
1664550813.667,-15.137,-10.742,-347.168,-16.602,0
1664550813.671,-5.859,-12.695,-342.773,-17.090,0
1664550813.675,-8.301,-4.883,-358.887,-15.625,0
1664550813.679,-9.766,-21.973,-410.156,-17.090,0
1664550813.683,-14.160,-24.902,-401.367,-16.602,0
1664550813.686,1.953,-31.738,-431.152,-2.441,0
1664550813.690,10.254,6.836,-353.516,-9.277,0
1664550813.694,-16.113,20.996,-301.758,-23.926,0
1664550813.698,-20.020,-20.020,-389.160,-21.973,0
1664550813.702,-8.789,-18.555,-385.254,-18.555,0
1664550813.703,-9.766,2.930,-300.293,-12.207,0
1664550813.707,-10.254,-5.859,-301.758,-9.277,0
1664550813.711,-10.742,-26.855,-396.973,-14.648,0
1664550813.715,-15.137,-20.996,-402.832,-15.137,0
1664550813.719,-13.184,-7.324,-321.777,-10.742,0
1664550813.723,-14.648,-20.996,-347.656,-16.113,0
1664550813.727,-26.367,-41.992,-420.410,-20.508,0
1664550813.730,-22.461,-26.855,-433.105,-17.090,0
1664550813.734,-15.137,-1.465,-356.445,-16.113,0
1664550813.738,-12.695,-2.930,-325.195,-26.855,0
1664550813.742,-6.836,-38.086,-450.684,-34.180,0
1664550813.746,-12.695,-20.020,-439.453,-21.973,0
1664550813.746,-21.973,19.531,-281.738,-15.625,0
1664550813.750,-18.555,-6.348,-349.121,-18.066,0
1664550813.754,-16.113,-12.207,-383.301,-26.855,0
1664550813.758,-13.672,6.348,-315.918,-32.715,0
1664550813.762,-6.836,0.977,-354.980,-23.926,0
1664550813.766,1.953,-16.113,-427.734,-7.324,0
1664550813.770,1.953,-21.973,-460.449,-4.395,0
1664550813.773,-8.301,22.949,-408.203,-22.461,0
1664550813.777,-8.789,43.945,-314.941,-23.926,0
1664550813.781,-4.883,8.789,-357.910,-3.906,0
1664550813.785,-10.254,-8.301,-436.035,-8.789,0
1664550813.789,-20.996,12.207,-367.676,-23.926,0
1664550813.791,-26.367,28.320,-286.621,-22.461,0
1664550813.795,-15.625,6.348,-373.047,-11.719,0
1664550813.799,-8.789,7.324,-389.648,-17.578,0
1664550813.803,-12.695,20.996,-312.988,-27.832,0
1664550813.807,-8.789,16.113,-284.668,-23.438,0
1664550813.811,0.000,-21.484,-406.738,-4.883,0
1664550813.815,-1.465,-20.996,-470.703,0.488,0
1664550813.818,-1.465,22.949,-357.422,-29.297,0
1664550813.822,-9.766,27.344,-334.473,-36.133,0
1664550813.826,-19.043,-6.348,-398.438,-11.230,0
1664550813.830,-6.348,-3.418,-428.711,-12.695,0
1664550813.834,-3.906,22.461,-361.328,-24.902,0
1664550813.852,-16.602,7.324,-391.602,-22.461,0
1664550813.856,-14.160,4.395,-401.855,-22.461,0
1664550813.860,-3.906,20.508,-333.496,-8.789,0
1664550813.864,-4.883,12.207,-334.961,-6.836,0
1664550813.868,-10.742,-1.953,-376.953,-18.555,0
1664550813.872,-3.418,-15.625,-426.270,-20.508,0
1664550813.876,2.930,4.395,-370.117,-18.066,0
1664550813.879,-6.348,21.973,-301.270,-17.090,0
1664550813.883,-13.184,-4.395,-362.305,-23.926,0
1664550813.887,-12.207,-16.602,-444.824,-18.555,0
1664550813.891,-5.371,25.879,-359.375,-12.207,0
1664550813.895,-0.488,28.320,-310.547,-13.184,0
1664550813.898,-7.812,-7.812,-403.320,-14.160,0
1664550813.902,-17.578,-6.348,-432.129,-31.250,0
1664550813.906,-12.207,18.066,-335.449,-24.902,0
1664550813.910,-3.906,-4.883,-371.582,-12.207,0
1664550813.914,-0.488,-21.973,-417.969,-9.277,0
1664550813.918,13.672,-15.137,-439.941,-3.906,0
1664550813.922,13.672,0.977,-419.434,-2.930,0
1664550813.925,-9.766,11.719,-302.246,-19.043,0
1664550813.929,-20.508,-31.250,-395.996,-29.785,0
1664550813.933,-23.438,-32.227,-460.449,-31.250,0
1664550813.937,-26.367,17.578,-275.391,-48.828,0
1664550813.941,-14.648,-9.766,-313.965,-34.180,0
1664550813.943,-15.625,-20.508,-363.281,-19.531,0
1664550813.947,-27.344,-4.883,-301.758,-26.855,0
1664550813.951,-27.832,-11.719,-292.969,-35.645,0
1664550813.955,-22.949,-25.391,-321.289,-31.250,0
1664550813.959,-26.855,-31.738,-353.027,-21.484,0
1664550813.963,-32.227,-30.762,-386.719,-22.461,0
1664550813.967,-24.414,-20.996,-357.910,-29.785,0
1664550813.970,-15.137,-19.531,-374.512,-13.184,0
1664550813.974,-12.695,-37.109,-420.898,8.301,0
1664550813.978,-27.832,-0.977,-356.445,-12.207,0
1664550813.982,-34.180,18.066,-318.359,-31.738,0
1664550813.986,-23.438,-8.301,-363.770,-22.949,0
1664550813.988,-10.742,-11.230,-389.648,-10.742,0
1664550813.992,-19.531,5.371,-334.961,-14.160,0
1664550813.996,-26.855,3.418,-325.195,-22.461,0
1664550814.000,-18.555,-7.812,-356.934,-20.508,0
1664550814.004,-0.977,-5.859,-359.863,-8.301,0
1664550814.008,-12.695,-6.348,-384.277,-9.766,0
1664550814.012,-41.992,-1.465,-378.418,-27.832,0
1664550814.015,-38.086,-25.391,-481.934,-25.879,0
1664550814.019,-25.391,-16.113,-510.742,-13.672,0
1664550814.023,-10.742,43.457,-279.785,-21.973,0
1664550814.027,-16.113,24.902,-284.668,-36.133,0
1664550814.031,-23.438,7.324,-345.703,-37.598,0
1664550814.033,-0.488,16.113,-307.617,-26.855,0
1664550814.037,0.488,27.344,-265.625,-18.066,0
1664550814.041,-1.465,8.789,-330.566,-17.578,0
1664550814.045,6.836,5.859,-360.352,-22.461,0
1664550814.049,-15.137,18.555,-326.172,-19.043,0
1664550814.053,-22.949,2.441,-395.508,-11.719,0
1664550814.057,-22.461,2.441,-390.137,-16.602,0
1664550814.060,-29.297,-9.766,-418.457,-17.578,0
1664550814.064,-22.949,20.508,-378.418,-14.160,0
1664550814.068,-16.113,37.598,-323.730,-10.254,0
1664550814.072,-14.160,3.906,-409.668,-13.672,0
1664550814.076,-12.695,7.812,-420.898,-26.855,0
1664550814.078,-19.043,29.785,-361.816,-28.809,0
1664550814.082,-25.879,27.832,-331.055,-24.902,0
1664550814.086,-14.648,2.930,-414.062,-13.184,0
1664550814.090,-15.137,8.301,-437.988,-21.973,0
1664550814.094,-17.090,21.973,-359.863,-38.086,0
1664550814.098,-11.230,11.230,-402.832,-34.180,0
1664550814.102,-3.418,-17.578,-505.859,-20.020,0
1664550814.105,-14.648,-2.441,-496.094,-17.090,0
1664550814.109,-28.809,61.035,-308.594,-36.621,0
1664550814.113,-19.043,39.062,-338.379,-28.809,0
1664550814.117,-16.602,18.066,-352.051,-16.113,0
1664550814.121,-13.672,30.762,-321.289,-18.066,0
1664550814.123,-22.949,18.555,-343.262,-20.508,0
1664550814.127,-16.602,6.836,-362.305,-14.648,0
1664550814.131,-1.953,23.926,-358.887,-14.648,0
1664550814.135,-5.371,32.715,-336.426,-21.484,0
1664550814.139,-13.672,24.414,-359.375,-23.926,0
1664550814.143,-8.789,6.836,-395.508,-23.438,0
1664550814.147,-0.977,-8.301,-450.195,-11.719,0
1664550814.150,-4.395,24.902,-401.367,-12.207,0
1664550814.154,-7.324,49.805,-289.062,-27.344,0
1664550814.158,-10.742,13.672,-362.793,-25.391,0
1664550814.162,-2.441,2.930,-410.156,-13.672,0
1664550814.166,2.930,26.855,-330.078,-9.277,0
1664550814.168,-7.324,23.438,-310.547,-12.207,0
1664550814.172,-15.625,0.488,-371.582,-22.461,0
1664550814.176,-16.602,-10.742,-425.781,-32.227,0
1664550814.180,-10.742,6.348,-365.723,-20.020,0
1664550814.184,-8.301,14.160,-319.824,-17.578,0
1664550814.188,-22.949,-28.320,-448.730,-28.320,0
1664550814.192,-26.855,-28.809,-520.020,-21.484,0
1664550814.195,-9.766,25.391,-336.426,-14.648,0
1664550814.199,-7.324,24.414,-278.809,-14.648,0
1664550814.203,-13.672,-8.301,-348.633,-14.160,0
1664550814.207,-16.602,-0.977,-302.246,-15.625,0
1664550814.211,-18.066,6.836,-288.574,-18.555,0
1664550814.228,-4.883,-13.672,-349.609,-12.695,0
1664550814.232,20.508,-8.301,-359.375,1.465,0
1664550814.236,8.789,8.301,-324.219,6.348,0
1664550814.240,-14.160,1.953,-316.406,-9.766,0
1664550814.244,-11.230,-21.973,-362.305,-18.066,0
1664550814.248,-13.184,-35.156,-412.598,-19.531,0
1664550814.252,-18.066,-28.809,-406.738,-18.555,0
1664550814.255,-12.695,-14.648,-346.191,-10.742,0
1664550814.259,-6.836,-23.926,-337.402,-6.836,0
1664550814.263,-2.441,-38.574,-397.949,0.977,0
1664550814.267,-6.836,-11.230,-375.000,-15.625,0
1664550814.271,-12.207,-10.254,-373.535,-21.484,0
1664550814.274,1.465,-18.066,-394.043,-8.789,0
1664550814.278,4.883,-20.996,-406.738,-8.301,0
1664550814.282,7.812,-8.301,-336.914,-13.672,0
1664550814.286,-5.859,-1.953,-325.684,-18.066,0
1664550814.290,-19.043,-20.508,-380.371,-4.395,0
1664550814.294,-5.371,-33.203,-423.340,7.812,0
1664550814.298,-1.465,-14.648,-370.117,-8.789,0
1664550814.301,-6.836,5.859,-329.102,-23.926,0
1664550814.305,0.977,-19.531,-439.941,-0.488,0
1664550814.309,-0.977,-7.812,-448.730,16.113,0
1664550814.313,1.953,46.387,-267.578,-1.953,0
1664550814.317,-3.906,9.277,-356.934,-18.555,0
1664550814.318,-11.719,-7.324,-405.273,-24.414,0
1664550814.322,2.441,20.020,-311.523,-9.766,0
1664550814.326,-1.465,20.508,-332.520,-7.812,0
1664550814.330,-18.066,4.883,-339.844,-21.484,0
1664550814.334,-12.207,-2.441,-344.727,-23.926,0
1664550814.338,-7.324,-1.465,-413.086,-18.555,0
1664550814.342,-10.254,16.602,-336.914,-8.789,0
1664550814.345,-7.812,13.184,-304.688,-14.160,0
1664550814.349,-9.277,-24.902,-391.113,-15.137,0
1664550814.353,-12.695,5.371,-345.215,-18.066,0
1664550814.357,-6.348,16.113,-308.594,-25.391,0
1664550814.361,-6.836,-10.742,-387.207,-26.367,0
1664550814.363,-12.695,-8.301,-416.504,-34.668,0
1664550814.367,-14.648,8.301,-331.543,-25.879,0
1664550814.371,-6.348,8.301,-338.379,-14.160,0
1664550814.375,-5.859,4.395,-363.281,-14.160,0
1664550814.379,-12.207,-0.977,-408.203,-19.043,0
1664550814.383,-4.883,-0.977,-392.090,-14.160,0
1664550814.387,-4.883,3.906,-348.633,-6.836,0
1664550814.390,-7.812,-32.715,-492.188,1.953,0
1664550814.394,-7.812,-15.137,-498.047,-4.883,0
1664550814.398,-12.695,40.527,-300.781,-33.203,0
1664550814.402,-17.578,13.672,-326.172,-21.973,0
1664550814.406,-15.137,-2.930,-363.770,-9.277,0
1664550814.408,-21.973,-1.953,-343.262,-20.996,0
1664550814.412,-21.973,5.371,-324.707,-30.273,0
1664550814.416,-14.160,-5.859,-349.609,-23.438,0
1664550814.420,-8.789,-6.348,-351.562,-4.395,0
1664550814.424,-12.207,3.418,-337.891,-10.254,0
1664550814.428,-25.879,-16.113,-382.812,-24.414,0
1664550814.432,-24.902,-20.996,-375.977,-20.996,0
1664550814.435,-15.625,-35.156,-431.152,-9.766,0
1664550814.439,-12.695,-1.953,-389.648,-18.555,0
1664550814.443,-19.043,17.578,-281.738,-33.203,0
1664550814.447,-17.578,-15.137,-342.285,-25.879,0
1664550814.451,-0.977,-9.766,-368.164,-4.395,0
1664550814.453,0.488,9.277,-295.898,5.371,0
1664550814.457,-14.648,-2.441,-298.828,-8.789,0
1664550814.461,-12.695,-21.973,-420.898,-14.648,0
1664550814.465,-15.137,-5.371,-403.320,-1.465,0
1664550814.469,-12.207,10.742,-319.336,5.371,0
1664550814.473,-10.254,-4.395,-382.812,-10.254,0
1664550814.477,-17.090,-32.715,-483.398,-17.090,0
1664550814.480,-5.371,-22.461,-519.043,-10.254,0
1664550814.484,-4.883,39.551,-335.938,-11.230,0
1664550814.488,-13.672,33.203,-308.105,-9.766,0
1664550814.492,-16.113,11.719,-354.980,-20.996,0
1664550814.496,-11.719,18.066,-333.496,-23.438,0
1664550814.498,-4.883,20.508,-311.035,-1.465,0
1664550814.502,-1.953,4.883,-345.215,6.348,0
1664550814.506,0.000,1.953,-368.652,-8.789,0
1664550814.510,11.230,18.066,-329.590,-12.207,0
1664550814.514,0.488,12.207,-333.008,-9.277,0
1664550814.518,-11.230,-6.348,-367.188,-5.371,0
1664550814.522,-8.789,-13.672,-423.828,0.488,0
1664550814.525,-15.625,9.277,-410.645,-8.789,0
1664550814.529,-14.648,26.855,-320.801,-4.883,0
1664550814.533,-9.766,-4.883,-379.883,1.953,0
1664550814.537,-8.789,-19.531,-426.270,-8.301,0
1664550814.541,-13.184,16.113,-333.496,-29.785,0
1664550814.542,-13.184,17.578,-289.062,-28.320,0
1664550814.546,-6.348,-10.742,-381.836,-4.395,0
1664550814.550,-2.930,-13.184,-425.781,-2.441,0
1664550814.554,-10.254,2.930,-342.285,-18.066,0
1664550814.558,-1.465,0.488,-323.242,-23.926,0
1664550814.562,8.301,-31.250,-463.867,0.488,0
1664550814.566,18.555,-26.855,-532.715,13.184,0
1664550814.569,21.973,16.602,-403.809,0.000,0
1664550814.573,3.906,15.137,-373.047,-4.883,0
1664550814.577,-9.277,-8.301,-421.875,0.000,0
1664550814.581,-0.488,8.789,-378.906,4.883,0
1664550814.585,-1.953,25.879,-284.180,-2.441,0
1664550814.603,-10.742,-0.488,-338.867,-14.160,0
1664550814.607,-6.836,-4.883,-342.773,-11.719,0
1664550814.611,0.488,6.836,-292.480,-9.277,0
1664550814.615,0.488,5.859,-283.691,-12.695,0
1664550814.619,-8.789,-21.484,-363.281,-7.812,0
1664550814.623,-4.395,-38.574,-451.172,-6.836,0
1664550814.627,7.324,-1.953,-375.000,0.000,0
1664550814.630,-2.930,20.020,-305.176,1.953,0
1664550814.634,-20.020,-16.602,-390.625,-14.160,0
1664550814.638,-19.043,-37.598,-470.703,-22.949,0
1664550814.642,-25.391,0.000,-374.023,-25.391,0
1664550814.646,-21.973,13.672,-282.227,-25.879,0
1664550814.648,-20.996,-19.531,-383.301,-36.133,0
1664550814.652,-24.414,-26.855,-434.082,-36.133,0
1664550814.656,-11.719,4.883,-332.031,-23.926,0
1664550814.660,-9.277,7.812,-312.012,-23.438,0
1664550814.664,-14.648,-14.648,-372.559,-24.414,0
1664550814.668,-18.555,-26.367,-433.594,-22.461,0
1664550814.672,-22.461,-11.230,-392.090,-20.508,0
1664550814.675,-16.113,3.418,-331.055,-20.508,0
1664550814.679,-11.230,-28.809,-464.844,-7.812,0
1664550814.683,-19.043,-20.508,-505.859,-13.184,0
1664550814.687,-13.672,32.227,-324.219,-25.391,0
1664550814.691,-9.766,1.953,-396.484,-4.883,0
1664550814.693,-2.441,3.906,-407.715,-4.395,0
1664550814.697,5.859,25.879,-327.148,-25.391,0
1664550814.701,-15.137,17.578,-316.406,-33.691,0
1664550814.705,-18.066,0.000,-361.816,-21.484,0
1664550814.709,-7.812,-4.395,-390.137,-20.020,0
1664550814.713,-11.719,-4.395,-395.508,-19.531,0
1664550814.717,-18.066,2.441,-367.188,-16.113,0
1664550814.720,-13.672,5.859,-338.379,-20.508,0
1664550814.724,-2.930,-16.113,-419.922,-3.906,0
1664550814.728,-9.766,23.926,-381.348,-8.301,0
1664550814.732,-11.230,39.551,-318.359,-16.602,0
1664550814.736,0.488,4.883,-395.996,8.301,0
1664550814.738,12.695,7.812,-386.230,25.879,0
1664550814.742,15.137,22.461,-312.500,11.230,0
1664550814.746,-19.043,7.324,-369.629,-17.578,0
1664550814.750,-17.090,10.742,-404.785,-32.227,0
1664550814.754,-3.906,18.066,-375.000,-21.973,0
1664550814.758,-24.414,-0.977,-367.188,-16.602,0
1664550814.762,-13.184,1.953,-362.305,-28.320,0
1664550814.765,-3.906,-18.555,-462.891,-25.391,0
1664550814.769,-15.625,-7.324,-495.117,-16.113,0
1664550814.773,-10.254,48.340,-300.781,-23.926,0
1664550814.777,4.395,20.020,-353.516,-27.344,0
1664550814.781,4.395,3.418,-391.602,-22.461,0
1664550814.783,2.930,21.973,-332.031,-5.859,0
1664550814.787,-7.812,26.367,-326.660,-10.254,0
1664550814.791,-20.020,8.789,-349.609,-23.438,0
1664550814.795,-16.113,5.371,-363.281,-23.438,0
1664550814.799,-15.137,10.742,-345.703,-24.902,0
1664550814.803,-14.648,2.441,-367.676,-14.648,0
1664550814.807,-14.160,-2.441,-349.609,-17.578,0
1664550814.810,-13.672,-22.461,-399.902,-21.973,0
1664550814.814,-7.812,10.254,-381.836,-18.555,0
1664550814.818,-11.719,34.668,-288.574,-9.766,0
1664550814.822,-4.395,0.977,-347.168,0.977,0
1664550814.826,-2.930,-2.930,-366.211,-9.277,0
1664550814.828,-8.789,13.184,-278.809,-18.066,0
1664550814.832,-12.695,4.883,-263.672,-6.836,0
1664550814.836,-13.672,-10.254,-354.492,4.883,0
1664550814.840,-1.465,1.465,-356.445,-3.906,0
1664550814.844,-4.883,16.602,-287.598,-17.090,0
1664550814.848,-13.672,1.465,-351.562,-15.625,0
1664550814.852,-1.465,-17.578,-452.637,3.418,0
1664550814.855,-8.789,-7.324,-485.352,7.324,0
1664550814.859,-9.277,41.504,-324.219,-20.508,0
1664550814.863,3.418,38.086,-284.180,-21.484,0
1664550814.867,-5.371,15.625,-335.938,-0.977,0
1664550814.871,0.488,19.531,-317.871,-8.301,0
1664550814.873,-0.488,20.996,-279.297,-21.973,0
1664550814.877,-12.207,2.930,-298.340,-20.020,0
1664550814.881,-7.812,-6.348,-352.051,-13.184,0
1664550814.885,1.953,7.324,-331.543,-12.207,0
1664550814.889,1.465,2.441,-349.609,-12.695,0
1664550814.893,-8.301,-14.160,-387.207,-18.066,0
1664550814.897,-0.488,-28.320,-447.266,-10.254,0
1664550814.900,-0.488,7.812,-413.574,-8.789,0
1664550814.904,-15.625,27.832,-304.688,-20.996,0
1664550814.908,-17.090,-7.324,-377.441,-28.320,0
1664550814.912,-7.812,-6.836,-394.531,-25.879,0
1664550814.916,-4.395,12.207,-333.984,-9.277,0
1664550814.918,0.000,12.695,-327.637,-17.578,0
1664550814.922,0.000,-5.859,-389.648,-27.344,0
1664550814.926,-14.160,-7.324,-412.598,-20.020,0
1664550814.930,5.371,4.883,-329.590,-3.418,0
1664550814.934,21.973,-1.465,-327.637,14.160,0
1664550814.938,17.090,-38.574,-493.164,7.812,0
1664550814.942,3.418,-28.320,-537.109,-13.672,0
1664550814.945,-19.531,33.203,-337.891,-26.367,0
1664550814.949,-13.184,38.086,-320.801,-20.508,0
1664550814.953,-5.371,21.973,-351.074,-23.926,0
1664550814.957,-0.977,26.855,-328.613,-25.879,0
1664550814.961,7.324,32.227,-331.543,-11.230,0
1664550814.994,4.883,22.949,-369.629,-1.465,0
1664550814.998,3.906,28.320,-362.793,-10.742,0
1664550815.002,2.441,34.668,-330.566,-26.367,0
1664550815.006,-7.812,28.809,-339.844,-21.484,0
1664550815.010,-0.488,15.137,-343.750,-2.441,0
1664550815.014,10.254,-3.906,-393.066,2.441,0
1664550815.018,5.859,14.648,-357.422,-11.230,0
1664550815.021,-3.418,32.227,-320.312,-11.719,0
1664550815.025,0.488,11.719,-355.469,1.465,0
1664550815.029,4.395,-0.977,-387.695,1.953,0
1664550815.033,-6.348,30.273,-334.961,-15.625,0
1664550815.037,-2.930,39.551,-275.391,-22.461,0
1664550815.022,-1.953,7.324,-359.863,-15.625,0
1664550815.026,-0.977,-4.883,-427.246,-10.254,0
1664550815.030,-2.930,7.812,-385.254,-18.066,0
1664550815.034,-14.648,19.531,-331.055,-30.762,0
1664550815.038,-6.836,2.441,-372.559,-28.320,0
1664550815.042,-8.301,-10.742,-424.805,-9.766,0
1664550815.046,-24.414,8.301,-378.418,-12.207,0
1664550815.049,-15.137,18.555,-318.359,-32.227,0
1664550815.053,-10.254,-23.438,-444.824,-21.973,0
1664550815.057,-20.996,-14.648,-472.656,-3.906,0
1664550815.061,-7.812,41.504,-290.039,-15.625,0
1664550815.065,-11.719,14.648,-349.609,-28.809,0
1664550815.068,-20.020,2.441,-383.789,-32.227,0
1664550815.072,-9.766,15.137,-323.730,-22.949,0
1664550815.076,-2.930,11.230,-309.082,-15.137,0
1664550815.080,-10.254,-5.371,-349.121,-17.090,0
1664550815.084,-11.230,-16.113,-416.992,-19.043,0
1664550815.088,4.883,-5.859,-424.805,-9.766,0
1664550815.092,12.207,20.996,-356.445,-5.371,0
1664550815.095,0.977,18.066,-350.098,-16.602,0
1664550815.099,-5.371,-20.996,-428.711,-18.555,0
1664550815.103,6.348,19.531,-347.168,-13.672,0
1664550815.107,8.301,32.715,-296.875,-13.184,0
1664550815.111,3.418,-10.742,-404.785,-6.348,0
1664550815.113,-0.977,-9.277,-410.645,-9.277,0
1664550815.117,-1.465,5.371,-332.031,-20.020,0
1664550815.121,10.254,0.488,-310.547,-9.277,0
1664550815.125,6.348,-12.207,-374.023,-6.836,0
1664550815.129,-10.254,-15.625,-434.082,-21.973,0
1664550815.133,-15.625,-19.043,-417.969,-20.020,0
1664550815.137,-14.160,-14.160,-372.070,-16.113,0
1664550815.140,-20.996,-47.852,-482.422,-14.160,0
1664550815.144,-21.973,-42.480,-517.090,-15.137,0
1664550815.148,-14.160,19.531,-308.594,-23.926,0
1664550815.152,-12.207,-0.977,-344.727,-16.113,0
1664550815.156,-1.465,-14.160,-389.160,-3.906,0
1664550815.158,4.395,2.441,-331.055,-14.160,0
1664550815.162,-5.859,5.371,-309.570,-29.785,0
1664550815.166,-6.348,-5.371,-323.242,-18.555,0
1664550815.170,-4.395,-10.742,-337.402,-8.301,0
1664550815.174,-5.371,-3.906,-342.285,-20.508,0
1664550815.178,-7.812,-13.672,-420.898,-23.926,0
1664550815.182,-14.160,-12.207,-401.855,-25.879,0
1664550815.185,0.488,-27.832,-432.617,-8.301,0
1664550815.189,-0.488,-15.137,-454.102,-0.977,0
1664550815.193,-16.602,13.184,-357.422,-24.414,0
1664550815.197,-9.766,0.000,-332.031,-25.391,0
1664550815.201,0.488,-9.277,-334.961,-15.137,0
1664550815.203,-1.953,4.395,-311.035,-8.789,0
1664550815.207,-4.883,2.441,-329.590,-12.695,0
1664550815.211,-9.766,-20.020,-395.020,-25.391,0
1664550815.215,-5.859,-18.066,-397.949,-19.531,0
1664550815.219,8.789,-0.977,-320.312,-5.371,0
1664550815.223,-5.371,-13.184,-346.680,-7.812,0
1664550815.227,-14.648,-43.945,-483.887,-9.277,0
1664550815.230,-6.836,-31.250,-516.602,0.488,0
1664550815.234,-5.859,26.855,-310.059,-11.230,0
1664550815.238,4.395,10.254,-315.430,-24.902,0
1664550815.242,-3.418,-13.672,-374.023,-25.391,0
1664550815.246,-12.207,-14.648,-380.371,-26.855,0
1664550815.248,8.789,7.324,-315.430,-18.066,0
1664550815.252,-2.930,1.465,-309.570,-13.672,0
1664550815.256,-23.926,-18.066,-384.277,-20.508,0
1664550815.260,-20.508,-1.465,-345.215,-26.855,0
1664550815.264,-18.555,-0.488,-341.797,-25.391,0
1664550815.268,-12.207,-21.973,-375.488,-21.484,0
1664550815.272,-11.719,-37.598,-451.660,-12.695,0
1664550815.275,-17.578,-0.977,-406.250,-17.578,0
1664550815.279,-16.113,18.555,-289.062,-27.344,0
1664550815.283,-0.977,-8.301,-338.379,-14.648,0
1664550815.287,-4.395,-10.254,-356.445,-9.766,0
1664550815.291,-23.926,-2.930,-330.078,-21.973,0
1664550815.293,-15.137,-10.254,-333.008,-17.090,0
1664550815.297,-11.230,-38.574,-428.711,-1.953,0
1664550815.301,-10.254,-42.480,-463.379,-9.766,0
1664550815.305,-3.906,-9.277,-341.309,-21.484,0
1664550815.309,-11.230,-9.277,-318.359,-14.160,0
1664550815.313,-11.230,-55.664,-482.910,4.395,0
1664550815.317,-6.836,-52.246,-528.320,5.859,0
1664550815.320,-9.766,-5.371,-364.258,-15.137,0
1664550815.324,-8.301,-5.371,-354.980,-21.484,0
1664550815.328,-8.789,-14.160,-347.168,-8.301,0
1664550815.332,-9.277,-0.488,-299.805,-6.836,0
1664550815.336,-17.578,12.207,-287.109,-21.484,0
1664550815.353,-8.789,-10.742,-314.453,-28.809,0
1664550815.357,-7.812,-20.020,-348.145,-21.484,0
1664550815.361,-14.160,-8.789,-337.402,-10.742,0
1664550815.365,-11.719,-17.090,-373.047,-12.207,0
1664550815.369,-20.996,-31.250,-423.828,-23.926,0
1664550815.373,-20.508,-29.785,-430.664,-20.020,0
1664550815.377,-13.672,-4.395,-368.652,-7.324,0
1664550815.380,-8.301,9.277,-316.406,-17.090,0
1664550815.384,-8.301,-18.066,-354.980,-30.762,0
1664550815.388,-12.207,-28.320,-399.902,-18.555,0
1664550815.392,-16.113,8.789,-336.426,-6.348,0
1664550815.396,-16.602,7.812,-290.039,-13.672,0
1664550815.399,-19.531,-25.879,-377.930,-25.391,0
1664550815.403,-14.160,-21.973,-400.391,-35.645,0
1664550815.407,-5.859,0.488,-273.438,-34.180,0
1664550815.411,-11.719,-4.883,-263.672,-22.461,0
1664550815.415,-12.207,-24.902,-365.234,-15.625,0
1664550815.419,-13.184,-33.203,-431.641,-22.461,0
1664550815.423,-9.766,-4.883,-357.422,-20.020,0
1664550815.426,-6.348,-1.953,-341.309,-7.812,0
1664550815.430,-1.465,-45.410,-494.629,-5.371,0
1664550815.434,-0.977,-24.902,-481.445,-15.137,0
1664550815.438,-7.812,31.738,-290.527,-21.484,0
1664550815.442,-9.766,15.625,-300.781,-10.742,0
1664550815.443,-4.395,-0.977,-322.754,-4.395,0
1664550815.447,5.859,-1.465,-299.316,-1.465,0
1664550815.451,0.977,-10.742,-333.008,2.930,0
1664550815.455,5.371,-13.184,-343.262,0.000,0
1664550815.459,-3.418,-10.742,-375.977,-20.020,0
1664550815.463,-17.578,-13.672,-434.570,-30.762,0
1664550815.467,-5.371,7.324,-369.629,-29.785,0
1664550815.470,-6.348,6.348,-345.215,-23.926,0
1664550815.474,-9.277,-43.457,-506.348,-2.441,0
1664550815.478,-14.648,-1.953,-455.078,-17.578,0
1664550815.482,-17.578,35.645,-318.359,-41.504,0
1664550815.486,-6.348,3.418,-372.070,-20.020,0
1664550815.488,0.488,-1.953,-416.504,-4.395,0
1664550815.492,-2.441,19.531,-368.164,-7.324,0
1664550815.496,-6.836,18.066,-312.988,-20.020,0
1664550815.500,-2.930,-3.418,-383.789,-20.996,0
1664550815.504,-10.254,-6.836,-423.828,-9.766,0
1664550815.508,-7.812,-11.230,-402.832,-10.742,0
1664550815.512,-0.488,-2.441,-375.977,-17.578,0
1664550815.515,-7.812,-31.250,-470.703,-18.555,0
1664550815.519,-9.766,-31.250,-508.789,-14.160,0
1664550815.523,-1.465,29.297,-323.242,-15.137,0
1664550815.527,-8.301,10.254,-341.797,-17.578,0
1664550815.531,-18.555,-12.695,-382.812,-11.230,0
1664550815.533,-9.277,11.230,-322.754,-3.906,0
1664550815.537,0.000,21.484,-302.246,-0.977,0
1664550815.541,-0.977,-0.488,-352.051,-2.930,0
1664550815.545,-6.348,-5.859,-389.648,-13.672,0
1664550815.549,1.953,12.695,-345.703,-9.277,0
1664550815.553,6.348,-5.859,-390.625,4.883,0
1664550815.557,3.418,-2.930,-375.977,3.418,0
1664550815.560,-4.883,-15.137,-400.391,1.465,0
1664550815.564,-10.254,5.859,-368.164,-4.395,0
1664550815.568,1.465,27.832,-289.551,-5.371,0
1664550815.572,6.348,-10.742,-385.742,0.488,0
1664550815.576,-1.953,-8.789,-390.625,-5.859,0
1664550815.578,0.000,7.324,-326.172,-9.766,0
1664550815.582,8.301,-4.395,-321.777,-1.465,0
1664550815.586,-1.953,-14.160,-381.348,2.930,0
1664550815.590,-7.812,-6.836,-411.621,-8.301,0
1664550815.594,-5.371,-6.348,-349.609,-20.996,0
1664550815.598,-4.395,-11.230,-320.312,-15.625,0
1664550815.602,0.000,-28.320,-428.223,7.812,0
1664550815.605,2.441,-20.020,-506.348,9.277,0
1664550815.609,-14.648,28.320,-283.691,-22.949,0
1664550815.613,-16.113,0.000,-311.035,-26.855,0
1664550815.617,-4.395,-19.531,-365.234,-8.789,0
1664550815.621,-17.090,1.953,-286.621,-6.836,0
1664550815.623,-28.320,0.977,-298.828,-19.043,0
1664550815.627,-18.066,-14.160,-358.398,-27.344,0
1664550815.631,-15.625,-12.695,-393.555,-13.672,0
1664550815.635,-17.090,-5.371,-401.367,-5.859,0
1664550815.639,-17.090,-3.906,-389.648,-20.020,0
1664550815.643,-13.672,-8.789,-389.648,-28.809,0
1664550815.647,-5.859,-37.109,-465.332,-12.695,0
1664550815.650,-14.648,-5.859,-427.734,-0.977,0
1664550815.654,-18.555,33.203,-331.055,-15.625,0
1664550815.658,-25.879,4.395,-383.789,-30.273,0
1664550815.662,-16.113,-4.883,-412.109,-16.113,0
1664550815.666,-11.230,10.742,-345.703,-8.789,0
1664550815.668,-14.160,6.836,-324.219,-20.508,0
1664550815.672,-9.766,-9.766,-394.043,-19.043,0
1664550815.676,-10.742,-21.484,-422.852,-12.695,0
1664550815.680,-3.906,-2.930,-343.262,-4.883,0
1664550815.684,-0.977,8.301,-307.617,-6.836,0
1664550815.688,-13.672,-33.203,-461.426,-22.461,0
1664550815.692,-12.207,-38.086,-539.551,-21.973,0
1664550815.695,1.953,0.977,-372.559,-9.766,0
1664550815.699,0.488,-3.906,-345.215,-12.695,0
1664550815.703,-4.395,-31.250,-443.359,-20.508,0
1664550815.707,-23.438,-17.090,-442.871,-27.344,0
1664550815.711,-26.367,16.113,-319.824,-24.902,0
1664550815.728,-17.090,-1.465,-342.773,-4.395,0
1664550815.732,-18.066,-13.184,-396.973,-15.625,0
1664550815.736,-12.695,1.465,-361.816,-25.879,0
1664550815.740,-12.695,4.395,-333.008,-15.625,0
1664550815.744,-13.184,-15.625,-354.492,-10.254,0
1664550815.748,-11.719,-38.086,-425.781,-12.207,0
1664550815.752,-19.531,-22.461,-394.531,-21.973,0
1664550815.755,-18.066,0.488,-333.984,-15.625,0
1664550815.759,-17.578,-15.137,-376.465,0.000,0
1664550815.763,-27.832,-19.531,-400.879,-0.488,0
1664550815.767,-31.250,15.137,-338.867,-18.555,0
1664550815.771,-19.531,18.066,-302.246,-19.043,0
1664550815.773,-12.207,-12.695,-383.301,-5.371,0
1664550815.777,-5.859,-13.184,-405.762,-0.488,0
1664550815.781,-5.371,-0.977,-344.238,-13.672,0
1664550815.785,-21.484,-1.465,-308.594,-27.344,0
1664550815.789,-22.949,-24.902,-360.352,-7.812,0
1664550815.793,-15.137,-41.504,-468.750,1.953,0
1664550815.797,-11.719,-20.508,-416.016,-11.719,0
1664550815.800,-3.418,-10.254,-376.953,-20.996,0
1664550815.804,-6.348,-38.574,-475.098,-17.090,0
1664550815.808,-14.160,-28.320,-470.703,-0.488,0
1664550815.812,-14.648,10.742,-356.445,-15.137,0
1664550815.816,-20.020,-7.324,-395.996,-32.227,0
1664550815.818,-22.949,-0.977,-354.980,-29.297,0
1664550815.822,-21.973,5.859,-313.477,-18.555,0
1664550815.826,-17.578,-0.488,-326.172,-9.277,0
1664550815.830,-13.672,-12.207,-346.680,-14.160,0
1664550815.834,-16.113,-17.578,-362.305,-19.531,0
1664550815.838,-18.066,-16.602,-381.836,-9.766,0
1664550815.842,-14.648,-3.906,-351.562,-5.371,0
1664550815.845,-12.695,-9.277,-320.801,-17.578,0
1664550815.849,-6.348,-42.969,-415.527,-10.254,0
1664550815.853,-11.719,-0.488,-351.562,-10.254,0
1664550815.857,-19.043,17.090,-274.414,-19.531,0
1664550815.861,-11.719,-18.066,-355.469,-18.066,0
1664550815.863,-22.949,-34.668,-431.641,-30.273,0
1664550815.867,-30.273,-15.137,-374.023,-26.855,0
1664550815.871,-22.461,7.812,-288.086,-11.719,0
1664550815.875,-16.113,-14.160,-392.090,-15.137,0
1664550815.879,-11.719,-21.973,-459.961,-21.484,0
1664550815.883,-9.766,-13.184,-394.043,-23.438,0
1664550815.887,-8.789,-4.883,-355.957,-18.555,0
1664550815.890,-3.418,-33.203,-464.844,0.000,0
1664550815.894,-0.977,-25.879,-487.305,-3.906,0
1664550815.898,-5.859,30.273,-309.570,-29.297,0
1664550815.902,-5.371,14.648,-320.312,-26.367,0
1664550815.906,-9.766,-0.488,-363.281,-21.973,0
1664550815.908,-26.855,6.348,-329.102,-28.320,0
1664550815.912,-26.855,6.348,-306.641,-36.621,0
1664550815.916,-27.344,-14.648,-346.191,-33.203,0
1664550815.920,-20.508,-15.137,-359.863,-27.832,0
1664550815.924,-18.066,-2.930,-348.145,-30.762,0
1664550815.928,-15.625,-12.695,-401.855,-31.738,0
1664550815.932,-1.953,-7.324,-368.164,-29.297,0
1664550815.935,1.465,-26.367,-439.453,-9.766,0
1664550815.939,0.000,-3.418,-412.598,-9.766,0
1664550815.943,0.000,20.020,-300.293,-23.926,0
1664550815.947,-6.348,-9.766,-381.836,-14.160,0
1664550815.951,-13.672,-15.625,-403.320,-2.930,0
1664550815.953,-10.254,0.000,-314.941,-1.465,0
1664550815.957,-9.277,2.930,-278.809,-7.324,0
1664550815.961,-9.277,-24.902,-406.738,-12.207,0
1664550815.965,-11.719,-21.484,-441.895,-6.836,0
1664550815.969,-3.906,-6.348,-359.375,-5.371,0
1664550815.973,-1.953,-12.695,-386.230,-11.230,0
1664550815.977,-10.742,-36.621,-476.074,-8.301,0
1664550815.980,-11.230,-38.086,-528.809,3.906,0
1664550815.984,-7.812,20.020,-322.754,-5.371,0
1664550815.988,-0.488,13.672,-301.758,-11.719,0
1664550815.992,1.465,-11.719,-370.117,-6.836,0
1664550815.996,-1.953,-0.488,-325.195,-15.625,0
1664550815.998,1.953,5.371,-288.086,-11.230,0
1664550816.002,0.977,-12.695,-342.773,-1.465,0
1664550816.006,-11.230,-20.996,-377.441,-12.695,0
1664550816.010,-14.160,-4.883,-311.523,-20.996,0
1664550816.014,-11.230,-8.789,-328.613,-12.695,0
1664550816.018,-14.160,-25.879,-385.742,-16.113,0
1664550816.022,-13.672,-36.133,-451.172,-20.996,0
1664550816.025,-7.812,-14.648,-425.293,-26.855,0
1664550816.029,-13.672,9.277,-335.938,-27.344,0
1664550816.033,-24.414,-4.883,-339.844,-18.066,0
1664550816.037,-20.996,-12.207,-335.449,-20.508,0
1664550816.041,-13.672,-0.488,-319.336,-25.879,0
1664550816.043,-12.207,-7.324,-323.730,-22.461,0
1664550816.047,-8.789,-20.996,-371.582,-8.789,0
1664550816.051,-10.742,-21.973,-392.578,-4.395,0
1664550816.055,-21.973,-3.906,-306.641,-23.438,0
1664550816.059,-13.672,-9.766,-322.266,-23.438,0
1664550816.063,3.418,-41.504,-458.008,0.000,0
1664550816.067,-8.789,-35.645,-491.699,1.465,0
1664550816.070,-17.578,3.418,-374.023,-19.531,0
1664550816.074,-14.648,8.301,-309.082,-29.785,0
1664550816.078,-8.789,-32.715,-424.805,-17.578,0
1664550816.082,-2.930,-17.578,-447.266,-6.836,0
1664550816.086,-20.020,23.926,-277.344,-21.973,0
1664550816.103,-20.996,0.488,-319.824,-33.203,0
1664550816.107,-8.789,-10.742,-381.836,-22.461,0
1664550816.111,-16.602,-4.395,-354.980,-16.113,0
1664550816.115,-30.273,1.465,-315.918,-30.273,0
1664550816.119,-42.480,-9.277,-334.961,-44.434,0
1664550816.123,-45.410,-26.367,-402.344,-50.781,0
1664550816.127,-49.316,-12.207,-381.836,-53.711,0
1664550816.130,-48.340,7.812,-353.516,-57.129,0
1664550816.134,-50.781,0.977,-364.746,-68.848,0
1664550816.138,-76.172,-12.207,-404.785,-83.008,0
1664550816.142,-95.703,20.020,-351.074,-99.609,0
1664550816.146,-106.445,22.949,-315.918,-109.375,0
1664550816.148,-119.629,-12.695,-410.645,-114.258,0
1664550816.152,-131.836,-8.789,-427.734,-131.836,0
1664550816.156,-125.488,20.508,-335.449,-138.672,0
1664550816.160,-130.371,17.578,-333.008,-137.695,0
1664550816.164,-140.137,-1.953,-419.922,-141.602,0
1664550816.168,-149.414,-11.719,-474.609,-157.715,0
1664550816.172,-160.156,-4.883,-416.504,-172.363,0
1664550816.175,-157.715,5.859,-373.535,-171.875,0
1664550816.179,-158.691,-24.902,-490.234,-166.992,0
1664550816.183,-163.574,-17.578,-509.277,-171.875,0
1664550816.187,-159.180,43.457,-316.406,-177.246,0
1664550816.191,-146.973,17.090,-342.285,-167.969,0
1664550816.193,-150.879,-5.371,-376.953,-171.387,0
1664550816.197,-173.340,15.137,-313.477,-187.988,0
1664550816.201,-165.527,15.137,-316.406,-185.547,0
1664550816.205,-153.320,-2.441,-334.473,-170.410,0
1664550816.209,-163.574,0.977,-364.258,-167.969,0
1664550816.213,-150.391,2.441,-411.621,-168.945,0
1664550816.217,-152.832,13.672,-359.863,-170.898,0
1664550816.220,-155.762,19.531,-310.547,-165.039,0
1664550816.224,-134.277,-18.555,-416.992,-138.184,0
1664550816.228,-134.277,7.812,-410.645,-141.602,0
1664550816.232,-126.953,34.180,-290.527,-149.414,0
1664550816.236,-113.770,-11.230,-382.812,-138.184,0
1664550816.238,-108.398,-12.695,-412.109,-125.488,0
1664550816.242,-94.727,13.184,-325.684,-125.000,0
1664550816.246,-99.121,4.395,-328.613,-138.184,0
1664550816.250,-104.004,-18.066,-437.988,-126.465,0
1664550816.254,-99.609,-17.090,-453.613,-109.375,0
1664550816.258,-93.262,-8.789,-403.809,-113.281,0
1664550816.262,-107.422,-8.301,-415.527,-127.930,0
1664550816.265,-101.562,-37.598,-519.043,-110.840,0
1664550816.269,-85.449,-22.949,-524.414,-97.168,0
1664550816.273,-97.168,39.062,-339.355,-108.398,0
1664550816.277,-90.332,23.438,-353.027,-104.492,0
1664550816.281,-82.031,2.441,-406.250,-108.887,0
1664550816.283,-83.984,10.254,-377.930,-102.051,0
1664550816.287,-81.055,19.043,-332.031,-98.145,0
1664550816.291,-84.473,10.742,-375.488,-103.027,0
1664550816.295,-73.730,16.113,-388.672,-93.750,0
1664550816.299,-63.477,22.949,-343.262,-83.496,0
1664550816.303,-63.477,7.812,-365.723,-72.754,0
1664550816.307,-60.547,4.883,-372.070,-71.289,0
1664550816.310,-62.500,-20.020,-482.422,-69.824,0
1664550816.314,-58.594,10.742,-446.777,-64.453,0
1664550816.318,-42.480,46.387,-295.410,-58.105,0
1664550816.322,-30.762,7.324,-377.930,-48.828,0
1664550816.326,-29.297,-5.371,-448.730,-54.688,0
1664550816.328,-32.715,13.184,-366.699,-55.664,0
1664550816.332,-26.367,18.555,-301.758,-31.738,0
1664550816.336,-12.695,0.488,-397.949,-9.766,0
1664550816.340,-12.207,-1.953,-434.570,-20.020,0
1664550816.344,-10.742,10.254,-367.676,-33.691,0
1664550816.348,-2.441,-1.953,-375.977,-19.531,0
1664550816.352,13.184,-33.691,-470.703,2.930,0
1664550816.355,24.902,-20.996,-517.090,10.254,0
1664550816.359,29.785,44.434,-331.055,7.812,0
1664550816.363,39.062,17.090,-345.703,21.484,0
1664550816.367,41.992,-15.137,-383.789,32.715,0
1664550816.371,32.227,-5.371,-362.305,22.461,0
1664550816.373,27.832,8.301,-321.289,7.812,0
1664550816.377,37.109,-5.371,-356.445,13.672,0
1664550816.381,46.387,-4.883,-359.375,32.715,0
1664550816.385,40.527,12.695,-283.203,38.574,0
1664550816.389,36.621,0.488,-339.844,24.902,0
1664550816.393,38.086,-16.602,-387.207,10.254,0
1664550816.397,44.434,-33.691,-441.895,33.203,0
1664550816.400,39.062,0.000,-395.508,40.527,0
1664550816.404,31.738,35.645,-262.207,20.996,0
1664550816.408,48.340,0.000,-331.055,25.879,0
1664550816.412,54.688,-6.836,-356.934,26.855,0
1664550816.416,53.223,6.348,-303.223,33.203,0
1664550816.418,46.387,-1.465,-304.199,40.527,0
1664550816.422,36.133,-7.812,-341.797,34.180,0
1664550816.426,50.781,-7.812,-371.582,36.621,0
