timestamps,TP9,AF7,AF8,TP10,marker
1664554122.219,-207.031,-60.059,-44.434,-240.234,0
1664554122.223,-225.098,-64.453,-31.738,-250.977,0
1664554122.227,-203.125,-71.777,-47.852,-209.473,0
1664554122.231,-201.660,-64.453,-47.363,-206.543,0
1664554122.235,-228.027,-63.965,-40.527,-250.488,0
1664554122.239,-256.836,-78.125,-27.344,-268.066,0
1664554122.243,-238.770,-83.008,-32.715,-221.680,0
1664554122.246,-216.797,-75.195,-49.316,-203.613,0
1664554122.250,-199.219,-74.707,-39.551,-211.426,0
1664554122.254,-223.633,-96.191,-27.832,-217.773,0
1664554122.258,-216.797,-95.215,-49.805,-189.941,0
1664554122.262,-174.316,-76.172,-59.570,-155.762,0
1664554122.264,-149.902,-76.660,-46.875,-148.926,0
1664554122.268,-168.457,-81.543,-52.246,-182.129,0
1664554122.272,-159.180,-71.777,-60.059,-157.715,0
1664554122.276,-101.074,-64.453,-61.523,-88.867,0
1664554122.280,-73.242,-72.266,-49.316,-63.965,0
1664554122.284,-106.934,-78.613,-41.504,-103.027,0
1664554122.288,-118.164,-82.031,-56.152,-112.793,0
1664554122.291,-65.918,-78.613,-68.848,-45.410,0
1664554122.295,-27.832,-81.543,-50.293,1.465,0
1664554122.299,-43.457,-84.961,-50.293,-34.668,0
1664554122.303,-85.938,-72.266,-81.055,-102.539,0
1664554122.307,-27.832,-72.754,-80.566,-39.062,0
1664554122.309,9.766,-74.707,-78.613,11.230,0
1664554122.313,0.977,-68.359,-83.984,-11.230,0
1664554122.317,-20.996,-62.988,-84.961,-50.781,0
1664554122.321,12.695,-62.988,-79.102,-4.395,0
1664554122.325,53.223,-65.918,-75.195,53.711,0
1664554122.329,46.875,-70.312,-77.148,48.828,0
1664554122.333,6.348,-69.824,-86.914,-20.996,0
1664554122.336,9.277,-66.895,-82.520,-20.020,0
1664554122.340,63.477,-74.219,-65.430,73.730,0
1664554122.344,53.223,-69.336,-83.496,57.129,0
1664554122.348,13.672,-59.570,-90.820,-14.160,0
1664554122.352,13.184,-63.477,-75.684,-6.348,0
1664554122.353,52.734,-64.453,-68.848,48.340,0
1664554122.357,58.105,-55.664,-78.613,52.734,0
1664554122.361,44.922,-61.523,-75.195,29.297,0
1664554122.365,11.719,-67.871,-70.312,-6.348,0
1664554122.369,34.668,-58.594,-69.824,25.391,0
1664554122.373,59.570,-58.105,-65.918,60.547,0
1664554122.377,39.551,-61.523,-69.336,32.227,0
1664554122.380,17.578,-62.500,-50.781,2.930,0
1664554122.384,23.926,-67.383,-55.176,12.695,0
1664554122.388,16.113,-58.594,-91.309,4.395,0
1664554122.392,29.785,-44.922,-76.660,11.719,0
1664554122.396,-1.953,-54.688,-70.801,-38.086,0
1664554122.399,-25.391,-61.035,-79.102,-49.316,0
1664554122.403,20.020,-47.852,-67.383,20.020,0
1664554122.407,35.156,-47.363,-60.547,36.621,0
1664554122.411,-2.930,-53.223,-66.406,-15.625,0
1664554122.415,-31.738,-58.105,-63.477,-45.898,0
1664554122.419,3.906,-59.082,-56.152,9.277,0
1664554122.423,20.020,-56.152,-58.594,28.809,0
1664554122.426,3.906,-61.523,-53.223,3.906,0
1664554122.430,-43.945,-53.711,-65.918,-57.129,0
1664554122.434,-21.973,-36.133,-73.730,-43.457,0
1664554122.438,19.043,-40.039,-54.199,10.742,0
1664554122.442,4.883,-47.852,-54.688,-4.883,0
1664554122.444,-44.434,-43.945,-71.777,-70.312,0
1664554122.448,-30.762,-45.410,-70.801,-52.246,0
1664554122.452,18.066,-52.246,-57.129,13.184,0
1664554122.456,9.277,-52.246,-55.664,0.000,0
1664554122.460,-46.875,-53.223,-60.547,-72.266,0
1664554122.464,-51.758,-56.152,-55.176,-70.312,0
1664554122.468,1.465,-62.988,-39.551,11.230,0
1664554122.471,-0.488,-73.730,-43.945,18.555,0
1664554122.475,-54.199,-60.547,-70.801,-68.359,0
1664554122.479,-68.359,-42.480,-61.523,-104.004,0
1664554122.483,-11.230,-43.457,-50.781,-31.250,0
1664554122.487,4.883,-47.852,-58.594,-3.418,0
1664554122.489,-21.484,-40.527,-70.312,-50.781,0
1664554122.493,-51.758,-43.945,-60.547,-83.984,0
1664554122.497,-28.320,-45.410,-60.059,-45.898,0
1664554122.501,-2.441,-41.504,-66.895,-12.695,0
1664554122.505,-5.859,-39.551,-56.641,-28.809,0
1664554122.509,-44.434,-46.387,-50.293,-75.195,0
1664554122.513,-38.086,-59.082,-44.434,-40.039,0
1664554122.516,-13.184,-47.852,-59.082,-12.695,0
1664554122.520,-17.090,-41.016,-67.383,-38.086,0
1664554122.524,-24.902,-44.434,-47.363,-60.059,0
1664554122.528,-46.875,-41.016,-55.176,-77.637,0
1664554122.532,-17.090,-32.227,-64.941,-35.156,0
1664554122.534,6.348,-29.785,-63.965,-22.461,0
1664554122.538,-15.625,-51.270,-51.270,-50.293,0
1664554122.542,-58.594,-59.570,-53.711,-91.309,0
1664554122.546,-43.945,-45.898,-64.453,-64.453,0
1664554122.550,-14.648,-43.945,-53.223,-19.043,0
1664554122.554,12.207,-62.012,-31.738,6.348,0
1664554122.558,-32.227,-66.895,-32.715,-45.898,0
1664554122.561,-79.590,-47.363,-67.871,-101.562,0
1664554122.565,-50.781,-40.527,-79.590,-73.730,0
1664554122.569,-28.320,-45.410,-65.918,-49.805,0
1664554122.573,-82.031,-42.480,-72.754,-117.188,0
1664554122.577,-90.820,-43.945,-81.055,-119.141,0
1664554122.594,-51.270,-41.504,-71.289,-57.617,0
1664554122.598,-54.688,-36.621,-77.148,-70.312,0
1664554122.602,-95.703,-39.062,-82.031,-126.953,0
1664554122.606,-120.605,-40.039,-69.824,-145.508,0
1664554122.610,-69.336,-41.992,-61.035,-77.637,0
1664554122.614,-41.992,-49.316,-53.223,-40.039,0
1664554122.618,-78.125,-50.781,-67.383,-90.820,0
1664554122.621,-116.699,-41.992,-72.754,-146.484,0
1664554122.625,-67.871,-42.480,-61.035,-80.566,0
1664554122.629,-38.574,-49.805,-62.012,-34.668,0
1664554122.633,-66.406,-42.480,-80.078,-80.566,0
1664554122.637,-106.445,-36.621,-80.078,-141.602,0
1664554122.639,-76.660,-41.016,-62.012,-103.516,0
1664554122.643,-27.832,-48.340,-52.246,-40.527,0
1664554122.647,-47.363,-44.434,-61.523,-61.035,0
1664554122.651,-100.098,-38.574,-67.871,-125.488,0
1664554122.655,-94.727,-41.016,-58.105,-113.770,0
1664554122.659,-56.152,-50.293,-58.594,-50.293,0
1664554122.663,-57.617,-49.316,-65.430,-51.270,0
1664554122.666,-84.961,-39.551,-70.312,-109.375,0
1664554122.670,-91.309,-45.410,-54.199,-116.211,0
1664554122.674,-59.082,-57.617,-58.594,-60.547,0
1664554122.678,-67.383,-49.805,-89.844,-74.707,0
1664554122.682,-78.613,-45.410,-80.566,-105.469,0
1664554122.684,-112.305,-53.711,-67.383,-143.066,0
1664554122.688,-86.914,-53.223,-69.336,-107.910,0
1664554122.692,-49.805,-46.387,-70.801,-62.988,0
1664554122.696,-53.223,-50.293,-60.547,-70.312,0
1664554122.700,-90.820,-55.176,-52.734,-116.699,0
1664554122.704,-84.961,-51.758,-55.664,-101.562,0
1664554122.708,-54.199,-48.340,-59.570,-51.270,0
1664554122.711,-52.734,-48.828,-63.477,-63.477,0
1664554122.715,-81.543,-61.035,-49.805,-103.027,0
1664554122.719,-111.816,-51.270,-62.500,-130.371,0
1664554122.723,-81.543,-36.621,-74.219,-91.797,0
1664554122.727,-61.523,-46.875,-59.570,-60.547,0
1664554122.729,-77.148,-50.293,-52.734,-94.727,0
1664554122.733,-107.910,-42.969,-58.594,-139.648,0
1664554122.737,-71.777,-37.598,-65.918,-91.309,0
1664554122.741,-37.598,-39.062,-53.223,-41.016,0
1664554122.745,-51.270,-43.945,-42.480,-67.383,0
1664554122.749,-90.332,-45.410,-44.922,-117.676,0
1664554122.753,-75.195,-40.039,-51.758,-84.961,0
1664554122.756,-27.832,-46.875,-37.109,-8.301,0
1664554122.760,-36.621,-51.270,-32.715,-22.461,0
1664554122.764,-104.980,-43.457,-65.430,-128.906,0
1664554122.768,-89.844,-42.969,-60.059,-111.816,0
1664554122.772,-48.340,-43.457,-53.711,-38.574,0
1664554122.774,-44.434,-39.062,-64.453,-40.527,0
1664554122.778,-79.102,-39.062,-65.430,-98.633,0
1664554122.782,-89.844,-55.664,-52.734,-111.328,0
1664554122.786,-47.852,-59.082,-55.176,-54.688,0
1664554122.790,-40.039,-40.527,-62.988,-47.852,0
1664554122.794,-64.941,-41.016,-49.316,-84.961,0
1664554122.798,-103.516,-52.734,-57.617,-127.930,0
1664554122.801,-65.918,-64.941,-54.199,-65.430,0
1664554122.805,-43.945,-62.500,-53.711,-33.203,0
1664554122.809,-57.617,-48.828,-65.430,-83.496,0
1664554122.813,-88.379,-50.781,-55.664,-123.535,0
1664554122.817,-77.637,-49.805,-52.734,-93.750,0
1664554122.819,-42.480,-46.875,-63.477,-54.688,0
1664554122.823,-32.715,-43.457,-59.082,-68.848,0
1664554122.827,-57.617,-47.852,-47.852,-110.840,0
1664554122.831,-70.801,-57.129,-56.152,-113.281,0
1664554122.835,-49.805,-53.223,-63.477,-68.848,0
1664554122.839,-38.086,-51.758,-55.176,-50.293,0
1664554122.843,-60.059,-62.500,-46.875,-79.590,0
1664554122.846,-89.844,-67.383,-52.734,-103.516,0
1664554122.850,-85.938,-49.805,-78.125,-94.727,0
1664554122.854,-62.988,-39.551,-65.430,-65.430,0
1664554122.858,-58.594,-46.875,-52.246,-80.078,0
1664554122.862,-98.633,-50.293,-59.570,-128.906,0
1664554122.864,-83.984,-46.387,-71.289,-98.633,0
1664554122.868,-51.758,-48.828,-63.965,-54.199,0
1664554122.872,-68.848,-59.570,-50.781,-67.383,0
1664554122.876,-123.535,-61.523,-60.059,-138.184,0
1664554122.880,-106.445,-56.641,-64.453,-118.652,0
1664554122.884,-52.246,-51.758,-49.316,-47.852,0
1664554122.888,-42.480,-61.523,-36.621,-30.762,0
1664554122.891,-98.145,-65.430,-55.664,-102.051,0
1664554122.895,-117.676,-51.270,-75.195,-137.695,0
1664554122.899,-60.547,-48.828,-59.082,-63.477,0
1664554122.903,-38.574,-52.246,-49.316,-43.945,0
1664554122.907,-77.637,-50.781,-57.617,-103.027,0
1664554122.909,-106.445,-50.293,-62.012,-137.695,0
1664554122.913,-58.105,-63.477,-50.781,-71.289,0
1664554122.917,-52.246,-60.547,-59.570,-49.316,0
1664554122.921,-75.195,-52.246,-76.172,-91.797,0
1664554122.925,-105.469,-55.664,-69.824,-141.602,0
1664554122.929,-69.336,-60.547,-51.270,-80.078,0
1664554122.933,-39.062,-62.012,-52.246,-27.344,0
1664554122.936,-60.059,-53.223,-72.266,-78.613,0
1664554122.940,-81.055,-42.969,-74.707,-131.836,0
1664554122.944,-59.082,-52.734,-43.945,-77.148,0
1664554122.948,-51.758,-55.664,-47.852,-35.645,0
1664554122.952,-67.383,-45.410,-63.965,-69.336,0
1664554122.969,-88.379,-47.852,-46.387,-107.910,0
1664554122.973,-101.562,-65.918,-38.086,-114.258,0
1664554122.977,-75.195,-78.125,-45.410,-70.801,0
1664554122.981,-62.012,-74.707,-49.805,-51.270,0
1664554122.985,-79.102,-67.871,-40.527,-84.961,0
1664554122.989,-104.492,-70.312,-33.203,-115.723,0
1664554122.993,-78.125,-71.777,-51.758,-79.590,0
1664554122.996,-57.617,-62.500,-61.523,-56.641,0
1664554123.000,-58.594,-65.430,-39.062,-71.289,0
1664554123.004,-96.191,-77.148,-30.762,-107.910,0
1664554123.008,-91.797,-71.289,-54.688,-95.215,0
1664554123.012,-46.875,-55.176,-56.641,-54.688,0
1664554123.014,-35.645,-62.500,-40.039,-54.199,0
1664554123.018,-83.496,-73.730,-49.316,-116.211,0
1664554123.022,-90.820,-66.406,-60.547,-115.723,0
1664554123.026,-44.922,-59.082,-60.059,-55.664,0
1664554123.030,-25.391,-55.176,-49.805,-42.480,0
1664554123.034,-58.105,-65.430,-48.828,-97.168,0
1664554123.038,-75.684,-60.059,-60.547,-125.000,0
1664554123.041,-39.551,-46.875,-56.641,-63.477,0
1664554123.045,-20.508,-58.105,-41.992,-21.973,0
1664554123.049,-41.504,-62.500,-43.945,-55.176,0
1664554123.053,-94.238,-46.875,-72.266,-139.160,0
1664554123.057,-49.316,-40.039,-62.500,-85.449,0
1664554123.074,-15.137,-42.969,-50.293,-24.902,0
1664554123.078,-26.855,-45.898,-53.711,-68.848,0
1664554123.082,-66.406,-43.945,-48.340,-127.930,0
1664554123.086,-57.617,-44.922,-47.363,-91.797,0
1664554123.090,-22.461,-48.340,-49.805,-38.086,0
1664554123.094,-24.414,-53.711,-46.387,-48.828,0
1664554123.098,-68.848,-53.223,-52.734,-108.887,0
1664554123.101,-68.359,-43.945,-52.734,-102.539,0
1664554123.105,-21.973,-55.664,-44.922,-27.344,0
1664554123.109,-38.574,-54.199,-64.941,-53.223,0
1664554123.113,-70.801,-41.016,-65.918,-118.164,0
1664554123.117,-79.102,-44.922,-46.387,-113.281,0
1664554123.104,-43.945,-48.828,-47.363,-55.664,0
1664554123.108,-38.574,-42.969,-62.012,-53.711,0
1664554123.112,-60.547,-44.922,-59.082,-95.215,0
1664554123.116,-85.938,-49.805,-48.340,-120.117,0
1664554123.120,-65.430,-47.363,-51.270,-78.125,0
1664554123.124,-48.828,-48.828,-54.688,-47.363,0
1664554123.128,-62.012,-53.711,-45.898,-68.359,0
1664554123.131,-90.332,-59.082,-36.621,-106.445,0
1664554123.135,-95.703,-52.734,-55.664,-97.168,0
1664554123.139,-75.195,-46.875,-63.965,-60.547,0
1664554123.143,-57.617,-53.711,-55.664,-51.270,0
1664554123.147,-74.219,-60.059,-38.086,-81.543,0
1664554123.149,-89.355,-54.199,-42.480,-85.449,0
1664554123.153,-76.660,-45.898,-72.754,-66.406,0
1664554123.157,-57.129,-49.805,-60.547,-52.734,0
1664554123.161,-85.449,-52.734,-62.012,-97.168,0
1664554123.165,-114.746,-48.340,-66.406,-134.766,0
1664554123.169,-75.684,-51.270,-56.152,-70.801,0
1664554123.173,-54.688,-48.828,-52.734,-42.480,0
1664554123.176,-62.500,-54.688,-40.527,-54.199,0
1664554123.180,-116.211,-62.500,-61.523,-125.977,0
1664554123.184,-101.074,-48.828,-76.172,-114.258,0
1664554123.188,-50.293,-47.852,-55.664,-36.621,0
1664554123.192,-48.340,-48.828,-53.223,-39.551,0
1664554123.194,-87.402,-52.734,-55.664,-102.051,0
1664554123.198,-78.613,-56.641,-54.199,-99.609,0
1664554123.202,-35.156,-43.945,-48.828,-32.715,0
1664554123.206,-39.551,-34.180,-54.199,-43.945,0
1664554123.210,-77.148,-30.273,-68.359,-116.211,0
1664554123.214,-82.520,-28.809,-68.359,-117.188,0
1664554123.218,-23.926,-38.086,-48.828,-30.762,0
1664554123.221,-0.977,-41.504,-57.617,-12.695,0
1664554123.225,-54.199,-24.414,-92.285,-88.379,0
1664554123.229,-87.891,-21.973,-74.707,-111.328,0
1664554123.233,-48.828,-29.785,-62.500,-50.781,0
1664554123.237,-32.715,-33.691,-73.730,-39.062,0
1664554123.239,-48.340,-35.156,-75.684,-86.426,0
1664554123.243,-77.148,-39.551,-64.453,-118.164,0
1664554123.247,-49.805,-42.969,-58.105,-70.312,0
1664554123.251,-28.809,-36.621,-70.801,-49.805,0
1664554123.255,-37.109,-34.180,-69.336,-68.848,0
1664554123.259,-58.105,-38.086,-51.270,-90.332,0
1664554123.263,-46.387,-46.875,-39.062,-61.035,0
1664554123.266,-30.273,-39.551,-65.918,-37.598,0
1664554123.270,-35.645,-21.973,-78.613,-63.477,0
1664554123.274,-44.434,-27.344,-48.340,-85.938,0
1664554123.278,-64.453,-41.016,-47.363,-95.703,0
1664554123.282,-46.387,-37.109,-62.012,-56.641,0
1664554123.284,-27.832,-35.156,-61.035,-41.016,0
1664554123.288,-41.504,-42.480,-55.176,-73.242,0
1664554123.292,-77.148,-35.156,-54.199,-114.746,0
1664554123.296,-56.641,-25.391,-65.430,-78.613,0
1664554123.300,-27.344,-33.203,-64.941,-37.598,0
1664554123.304,-29.785,-43.945,-46.387,-45.898,0
1664554123.308,-77.148,-49.316,-46.387,-100.098,0
1664554123.311,-70.312,-48.828,-62.012,-96.191,0
1664554123.315,-42.480,-43.457,-67.871,-55.664,0
1664554123.319,-33.203,-54.199,-51.758,-41.504,0
1664554123.323,-61.523,-57.129,-45.410,-90.332,0
1664554123.327,-83.984,-38.574,-71.777,-125.488,0
1664554123.344,-48.340,-38.574,-67.871,-64.941,0
1664554123.348,-40.039,-49.805,-61.523,-49.805,0
1664554123.352,-71.777,-52.734,-65.918,-104.492,0
1664554123.356,-96.680,-45.410,-65.430,-128.418,0
1664554123.360,-47.363,-44.434,-59.570,-64.941,0
1664554123.364,-25.879,-62.012,-51.270,-40.039,0
1664554123.368,-63.965,-65.918,-60.059,-89.844,0
1664554123.371,-104.980,-56.152,-67.383,-146.484,0
1664554123.375,-71.289,-52.734,-72.266,-97.168,0
1664554123.379,-31.250,-56.152,-61.035,-39.062,0
1664554123.383,-56.641,-50.781,-64.453,-83.496,0
1664554123.387,-104.492,-44.434,-71.777,-141.113,0
1664554123.389,-85.449,-49.805,-61.035,-104.004,0
1664554123.393,-40.527,-49.805,-54.688,-46.387,0
1664554123.397,-39.551,-45.898,-62.988,-66.406,0
1664554123.401,-69.824,-45.410,-65.430,-120.117,0
1664554123.405,-74.219,-55.176,-52.246,-105.957,0
1664554123.409,-25.879,-58.105,-43.457,-45.410,0
1664554123.413,-25.391,-57.129,-56.641,-54.688,0
1664554123.416,-64.453,-61.035,-73.242,-118.164,0
1664554123.420,-66.406,-68.359,-52.734,-118.164,0
1664554123.424,-32.227,-72.266,-51.758,-58.105,0
1664554123.428,-47.363,-49.805,-86.914,-83.496,0
1664554123.432,-49.805,-38.086,-68.848,-107.422,0
1664554123.435,-80.566,-48.340,-52.246,-137.207,0
1664554123.439,-73.242,-47.363,-66.895,-116.699,0
1664554123.443,-45.898,-38.086,-66.406,-75.195,0
1664554123.447,-54.688,-38.574,-48.828,-90.332,0
1664554123.451,-100.586,-45.898,-54.199,-148.926,0
1664554123.455,-95.703,-50.293,-61.035,-135.254,0
1664554123.459,-64.453,-45.410,-62.988,-90.820,0
1664554123.462,-73.242,-42.969,-64.941,-92.285,0
1664554123.466,-99.609,-60.547,-44.922,-125.000,0
1664554123.470,-132.812,-58.105,-60.059,-172.363,0
1664554123.474,-96.680,-40.527,-67.871,-135.742,0
1664554123.478,-63.965,-48.828,-43.945,-94.727,0
1664554123.479,-96.680,-55.664,-47.852,-144.043,0
1664554123.483,-136.719,-49.805,-58.105,-199.707,0
1664554123.487,-93.750,-44.434,-56.641,-147.949,0
1664554123.491,-50.293,-45.898,-48.340,-97.168,0
1664554123.495,-57.617,-54.199,-46.875,-127.930,0
1664554123.499,-87.402,-51.758,-52.246,-184.570,0
1664554123.503,-62.500,-44.922,-53.711,-158.691,0
1664554123.506,-12.695,-41.992,-38.574,-88.379,0
1664554123.510,-16.113,-42.480,-41.016,-103.027,0
1664554123.514,-75.195,-31.738,-70.801,-207.031,0
1664554123.518,-45.898,-23.926,-61.523,-182.129,0
1664554123.522,13.672,-26.855,-53.711,-114.746,0
1664554123.524,1.465,-30.273,-56.641,-132.812,0
1664554123.528,-39.062,-36.133,-45.898,-191.895,0
1664554123.532,-38.574,-44.434,-27.832,-199.219,0
1664554123.536,8.789,-45.410,-33.691,-145.996,0
1664554123.540,29.297,-31.250,-36.621,-128.906,0
1664554123.544,16.602,-38.574,-16.602,-137.695,0
1664554123.548,-6.836,-51.758,-19.531,-179.688,0
1664554123.551,38.086,-55.664,-20.020,-134.277,0
1664554123.555,57.129,-47.852,-33.203,-112.793,0
1664554123.559,41.016,-31.738,-49.316,-164.062,0
1664554123.563,23.438,-39.551,-26.367,-190.430,0
1664554123.567,35.645,-49.316,-23.926,-157.715,0
1664554123.569,57.617,-44.922,-47.363,-132.324,0
1664554123.573,66.895,-39.551,-45.898,-140.137,0
1664554123.577,40.039,-43.945,-28.320,-179.199,0
1664554123.581,40.527,-50.781,-26.855,-180.176,0
1664554123.585,90.820,-51.270,-34.668,-123.535,0
1664554123.589,98.145,-51.758,-39.062,-121.582,0
1664554123.593,78.613,-59.082,-25.879,-153.809,0
1664554123.596,60.547,-62.012,-28.320,-172.363,0
1664554123.600,76.660,-42.969,-57.129,-158.203,0
1664554123.604,112.793,-33.691,-44.922,-135.254,0
1664554123.608,111.328,-43.457,-32.227,-149.414,0
1664554123.612,72.266,-46.875,-43.457,-191.895,0
1664554123.615,103.516,-49.805,-50.781,-153.809,0
1664554123.619,145.508,-51.758,-47.363,-103.516,0
1664554123.623,137.695,-54.688,-47.363,-124.023,0
1664554123.627,82.520,-56.152,-48.340,-186.035,0
1664554123.631,98.145,-49.316,-46.387,-149.414,0
1664554123.635,145.508,-50.781,-40.039,-97.168,0
1664554123.639,136.719,-59.570,-27.344,-92.285,0
1664554123.642,73.242,-55.176,-46.387,-157.715,0
1664554123.646,51.270,-40.039,-60.059,-205.566,0
1664554123.650,96.680,-43.945,-44.922,-131.836,0
1664554123.654,86.426,-55.664,-46.387,-120.117,0
1664554123.658,26.367,-53.711,-51.270,-187.500,0
1664554123.659,-15.137,-53.711,-55.176,-234.375,0
1664554123.663,20.996,-60.059,-48.340,-178.711,0
1664554123.667,22.461,-58.594,-48.340,-152.344,0
1664554123.671,-20.996,-50.293,-52.734,-200.684,0
1664554123.675,-76.172,-50.781,-48.828,-251.465,0
1664554123.679,-57.617,-61.523,-31.250,-194.824,0
1664554123.683,-49.805,-65.918,-31.250,-144.531,0
1664554123.686,-109.375,-52.734,-56.152,-212.402,0
1664554123.690,-163.574,-48.340,-46.875,-285.156,0
1664554123.694,-173.340,-59.570,-37.598,-262.695,0
1664554123.698,-177.246,-60.547,-49.805,-225.586,0
1664554123.702,-207.520,-51.270,-52.734,-248.047,0
1664554123.719,-261.230,-48.340,-45.410,-295.898,0
1664554123.723,-302.734,-55.176,-46.387,-309.570,0
1664554123.727,-284.668,-58.105,-54.688,-268.066,0
1664554123.731,-277.344,-59.570,-57.617,-256.348,0
1664554123.735,-303.223,-59.570,-52.734,-286.133,0
1664554123.739,-318.359,-64.941,-35.156,-298.828,0
1664554123.743,-286.621,-61.523,-47.852,-248.535,0
1664554123.746,-274.414,-59.570,-65.430,-225.586,0
1664554123.750,-270.020,-66.406,-46.387,-230.469,0
1664554123.754,-288.574,-69.336,-41.504,-262.207,0
1664554123.758,-270.508,-62.988,-66.406,-258.789,0
1664554123.762,-216.797,-54.199,-62.012,-199.707,0
1664554123.765,-207.520,-59.570,-53.711,-188.965,0
1664554123.769,-261.230,-62.012,-60.547,-270.020,0
1664554123.773,-269.043,-52.734,-68.848,-291.016,0
1664554123.777,-206.543,-48.828,-57.129,-221.680,0
1664554123.781,-185.059,-56.641,-42.480,-204.590,0
1664554123.785,-223.145,-56.152,-48.828,-261.230,0
1664554123.789,-270.020,-55.176,-65.918,-297.852,0
1664554123.792,-248.535,-58.594,-66.895,-252.441,0
1664554123.796,-229.492,-60.547,-45.410,-209.961,0
1664554123.800,-288.086,-63.965,-48.828,-250.000,0
1664554123.804,-381.836,-53.711,-75.684,-330.566,0
1664554123.808,-365.723,-47.363,-71.289,-268.066,0
1664554123.810,-344.727,-51.270,-55.664,-196.289,0
1664554123.814,-375.000,-56.641,-53.711,-211.914,0
1664554123.818,-470.703,-51.270,-65.430,-277.832,0
1664554123.822,-545.410,-43.945,-62.500,-237.793,0
1664554123.826,-545.898,-43.945,-53.223,-157.227,0
1664554123.830,-500.488,-44.922,-55.664,-152.832,0
1664554123.834,-471.680,-41.016,-61.523,-203.125,0
1664554123.837,-409.668,-36.621,-59.570,-187.012,0
1664554123.841,-306.152,-52.734,-45.410,-80.566,0
1664554123.845,-285.156,-60.059,-69.336,-84.473,0
1664554123.849,-305.176,-49.316,-86.426,-152.344,0
1664554123.853,-284.668,-48.828,-61.035,-141.602,0
1664554123.855,-216.797,-56.641,-61.523,-66.895,0
1664554123.859,-191.895,-51.758,-79.102,-41.992,0
1664554123.863,-200.195,-45.410,-75.195,-71.289,0
1664554123.867,-220.215,-54.199,-64.453,-96.680,0
1664554123.871,-167.480,-58.105,-58.105,-18.066,0
1664554123.875,-121.582,-53.223,-59.082,48.828,0
1664554123.879,-121.582,-47.852,-60.547,19.531,0
1664554123.882,-133.789,-55.176,-42.969,-3.418,0
1664554123.886,-125.000,-63.965,-48.828,43.945,0
1664554123.890,-99.609,-46.387,-80.566,74.707,0
1664554123.894,-62.988,-33.691,-63.477,91.797,0
1664554123.898,-75.195,-41.016,-53.223,57.129,0
1664554123.900,-81.543,-45.410,-65.918,56.641,0
1664554123.904,-23.438,-40.527,-73.730,125.000,0
1664554123.908,10.254,-37.598,-70.801,150.879,0
1664554123.912,0.977,-38.086,-63.477,118.164,0
1664554123.916,-13.672,-37.598,-62.988,94.238,0
1664554123.920,37.109,-41.016,-60.547,167.480,0
1664554123.924,67.871,-44.922,-56.152,203.125,0
1664554123.927,65.918,-48.340,-44.922,188.965,0
1664554123.931,13.672,-40.039,-62.012,126.953,0
1664554123.935,29.785,-28.809,-73.730,152.832,0
1664554123.939,85.449,-31.738,-60.059,230.469,0
1664554123.943,85.938,-35.645,-59.570,203.613,0
1664554123.945,41.504,-33.203,-63.965,127.930,0
1664554123.949,46.875,-26.367,-63.965,155.762,0
1664554123.953,84.473,-31.250,-51.270,234.375,0
1664554123.957,66.895,-39.551,-61.523,226.074,0
1664554123.961,12.695,-37.109,-73.730,163.574,0
1664554123.965,-9.766,-37.109,-62.012,149.902,0
1664554123.969,28.320,-46.387,-51.270,223.145,0
1664554123.972,24.414,-55.664,-48.828,256.836,0
1664554123.976,-54.688,-43.945,-76.172,175.293,0
1664554123.980,-117.676,-33.203,-75.195,117.188,0
1664554123.984,-93.262,-38.086,-57.617,188.477,0
1664554123.988,-94.727,-41.016,-66.895,224.609,0
1664554123.989,-145.996,-35.156,-71.777,176.270,0
1664554123.993,-213.867,-38.574,-57.617,130.859,0
1664554123.997,-226.074,-43.457,-54.199,164.551,0
1664554124.001,-222.656,-37.598,-61.035,204.102,0
1664554124.005,-255.371,-32.715,-57.129,189.941,0
1664554124.009,-322.266,-33.691,-47.363,148.438,0
1664554124.013,-351.074,-39.551,-37.109,173.340,0
1664554124.016,-363.770,-34.180,-63.477,203.125,0
1664554124.020,-398.926,-23.926,-79.590,187.988,0
1664554124.024,-454.590,-32.715,-56.641,157.227,0
1664554124.028,-523.438,-41.504,-60.547,119.141,0
1664554124.032,-531.738,-35.156,-73.242,154.297,0
1664554124.034,-541.992,-26.855,-68.359,178.711,0
1664554124.038,-576.660,-28.320,-52.734,152.832,0
1664554124.042,-647.461,-37.109,-49.805,102.539,0
1664554124.046,-672.363,-32.715,-65.430,121.094,0
1664554124.050,-668.945,-28.320,-62.500,150.879,0
1664554124.054,-684.082,-36.133,-36.133,147.461,0
1664554124.058,-751.465,-46.875,-32.227,88.867,0
1664554124.061,-787.598,-41.992,-67.871,62.988,0
1664554124.065,-758.789,-28.320,-73.242,105.957,0
1664554124.069,-749.023,-33.203,-56.152,110.840,0
1664554124.073,-801.758,-39.551,-63.965,34.180,0
1664554124.077,-823.730,-35.156,-69.824,20.020,0
1664554124.094,-773.926,-35.645,-54.688,103.516,0
1664554124.098,-770.020,-41.992,-55.176,100.098,0
1664554124.102,-819.824,-46.387,-61.523,25.879,0
1664554124.106,-855.469,-42.969,-60.547,-7.324,0
1664554124.110,-816.406,-40.527,-56.152,55.664,0
1664554124.114,-794.922,-49.805,-49.316,88.379,0
1664554124.118,-836.426,-50.781,-62.988,32.227,0
1664554124.121,-895.020,-45.898,-74.219,-36.133,0
1664554124.125,-861.328,-49.316,-55.176,10.742,0
1664554124.129,-838.379,-62.500,-44.434,68.848,0
1664554124.133,-879.395,-58.594,-67.383,9.277,0
1664554124.137,-921.387,-45.898,-69.336,-73.730,0
1664554124.139,-907.227,-52.734,-49.316,-45.410,0
1664554124.143,-871.094,-56.152,-52.734,-1.465,0
1664554124.147,-865.723,-49.316,-63.965,-20.996,0
1664554124.151,-888.184,-50.293,-57.617,-69.824,0
1664554124.155,-881.348,-48.828,-51.758,-77.148,0
1664554124.159,-823.730,-47.852,-54.199,-20.996,0
1664554124.163,-791.992,-49.316,-60.547,-19.531,0
1664554124.166,-796.875,-54.199,-61.523,-73.730,0
1664554124.170,-775.391,-64.941,-39.551,-85.938,0
1664554124.174,-700.684,-58.105,-43.945,-39.062,0
1664554124.178,-660.645,-42.480,-62.500,-47.852,0
1664554124.182,-624.023,-48.340,-46.875,-72.266,0
1664554124.184,-627.930,-54.199,-50.781,-117.676,0
1664554124.188,-578.125,-53.223,-62.500,-104.004,0
1664554124.192,-500.000,-51.758,-67.383,-70.801,0
1664554124.196,-462.402,-51.758,-56.152,-75.684,0
1664554124.200,-449.219,-58.594,-43.457,-113.281,0
1664554124.204,-394.531,-53.711,-45.410,-113.770,0
1664554124.208,-339.355,-49.316,-49.805,-84.473,0
1664554124.211,-310.059,-51.270,-58.105,-89.844,0
1664554124.215,-290.527,-54.688,-44.922,-131.836,0
1664554124.219,-304.199,-52.734,-50.293,-170.898,0
1664554124.223,-257.324,-43.945,-75.684,-139.160,0
1664554124.227,-208.008,-53.223,-56.641,-104.492,0
1664554124.229,-226.562,-68.359,-53.223,-144.531,0
1664554124.233,-257.324,-67.871,-68.359,-200.195,0
1664554124.237,-216.797,-59.082,-61.523,-151.367,0
1664554124.241,-179.688,-61.035,-56.152,-107.422,0
1664554124.245,-204.102,-65.918,-56.641,-135.254,0
1664554124.249,-272.461,-61.523,-51.758,-197.754,0
1664554124.253,-290.039,-63.477,-47.852,-179.199,0
1664554124.256,-248.047,-78.613,-40.527,-106.445,0
1664554124.260,-209.961,-72.754,-52.246,-118.652,0
1664554124.264,-284.668,-53.711,-77.637,-223.145,0
1664554124.268,-295.410,-56.152,-60.547,-208.008,0
1664554124.272,-223.633,-58.594,-49.805,-131.348,0
1664554124.274,-212.402,-54.199,-64.453,-132.812,0
1664554124.278,-235.352,-60.547,-62.500,-190.430,0
1664554124.282,-215.332,-73.242,-46.387,-195.801,0
1664554124.286,-153.320,-69.824,-54.688,-132.812,0
1664554124.290,-128.418,-55.664,-69.336,-128.418,0
1664554124.294,-124.512,-53.223,-64.453,-160.645,0
1664554124.298,-124.512,-57.129,-67.871,-201.172,0
1664554124.301,-70.801,-58.105,-61.523,-141.602,0
1664554124.305,-16.602,-51.758,-69.336,-101.562,0
1664554124.309,13.672,-36.621,-78.125,-147.461,0
1664554124.313,11.719,-53.711,-74.707,-207.031,0
1664554124.317,69.336,-49.316,-79.590,-187.012,0
1664554124.319,150.391,-40.527,-82.520,-132.812,0
1664554124.323,194.824,-43.457,-77.148,-146.484,0
1664554124.327,266.602,-44.922,-62.988,-172.363,0
1664554124.331,344.238,-43.457,-65.918,-143.555,0
1664554124.335,415.527,-30.273,-70.801,-86.426,0
1664554124.339,473.145,-46.875,-56.152,-78.125,0
1664554124.343,477.539,-45.410,-30.273,-111.328,0
1664554124.346,462.402,-34.180,-37.109,-161.621,0
1664554124.350,558.105,-7.324,-81.543,-152.344,0
1664554124.354,629.883,-15.137,-65.430,-109.863,0
1664554124.358,574.219,-1.953,-53.223,-149.414,0
1664554124.362,651.367,16.113,-74.707,-163.574,0
1664554124.364,812.500,-35.156,-57.129,-70.801,0
1664554124.368,859.863,-36.621,-57.617,-42.969,0
1664554124.372,879.395,-20.020,-60.547,-79.590,0
1664554124.376,841.797,0.000,-71.289,-133.789,0
1664554124.380,800.781,13.672,-71.289,-197.754,0
1664554124.384,881.348,-23.926,-64.941,-136.719,0
1664554124.388,971.680,-74.219,-36.133,-57.129,0
1664554124.391,833.496,-23.926,-75.684,-308.105,0
1664554124.395,858.398,-6.348,-92.285,-216.797,0
1664554124.399,981.445,-10.742,-40.527,-19.531,0
1664554124.403,951.660,-10.742,-37.109,-33.691,0
1664554124.407,980.957,-32.227,-51.270,-75.684,0
1664554124.409,892.578,38.574,-95.703,-244.141,0
1664554124.413,856.445,-23.926,-69.824,-99.121,0
1664554124.417,971.191,-77.637,-50.293,-12.695,0
1664554124.421,960.938,48.340,-60.547,-50.293,0
1664554124.425,965.820,-3.418,-63.965,-31.738,0
1664554124.429,889.160,-0.977,-45.898,-66.406,0
1664554124.433,884.766,70.312,-33.691,-52.246,0
1664554124.436,968.750,12.695,-112.305,-196.777,0
1664554124.440,970.215,-18.066,-36.133,-83.496,0
1664554124.444,936.523,-30.273,-20.996,115.234,0
1664554124.448,913.086,-16.113,-69.824,-5.371,0
1664554124.452,916.016,-7.324,-28.320,-63.965,0
1664554124.469,925.293,66.895,-53.223,-51.270,0
1664554124.473,969.727,84.473,-9.766,38.086,0
1664554124.477,952.148,62.988,9.277,-144.043,0
1664554124.481,987.305,133.301,-126.953,-121.094,0
1664554124.485,874.023,99.121,-58.105,15.625,0
1664554124.489,818.359,24.414,0.000,47.363,0
1664554124.493,970.215,35.645,-67.383,-128.418,0
1664554124.496,963.379,78.613,-65.430,-309.570,0
1664554124.500,965.820,65.918,-42.480,80.078,0
1664554124.504,936.523,72.754,-89.844,-48.340,0
1664554124.508,933.594,105.469,-52.734,-87.402,0
1664554124.512,913.086,64.941,-22.949,60.547,0
1664554124.528,886.719,116.211,-80.078,-152.344,0
1664554124.532,982.910,111.328,-95.703,-134.277,0
1664554124.536,926.758,82.520,-76.660,85.938,0
1664554124.540,845.215,59.570,-37.109,-10.254,0
1664554124.544,947.266,41.016,-78.125,13.672,0
1664554124.548,974.121,96.191,-96.680,30.273,0
1664554124.552,685.059,37.109,-62.012,-209.961,0
1664554124.555,749.512,28.320,-2.441,-114.746,0
1664554124.559,-980.957,41.992,-33.203,160.645,0
1664554124.563,846.191,74.219,-83.008,72.754,0
1664554124.567,599.121,180.664,-165.039,-139.160,0
1664554124.571,562.988,202.637,-109.375,-79.590,0
1664554124.558,589.355,93.750,-33.691,145.508,0
1664554124.562,705.566,-6.348,-27.832,228.516,0
1664554124.566,489.746,104.492,-82.520,-85.449,0
1664554124.570,189.453,144.043,-59.082,-105.957,0
1664554124.574,410.645,17.090,-48.340,179.688,0
1664554124.578,450.195,-0.977,-88.867,228.516,0
1664554124.582,283.691,76.660,-64.453,11.719,0
1664554124.585,188.477,106.934,-39.062,-70.801,0
1664554124.589,204.590,85.938,-55.176,0.977,0
1664554124.593,244.629,79.102,-108.887,140.137,0
1664554124.597,22.949,65.430,-4.395,2.441,0
1664554124.601,-167.480,81.543,10.742,-119.629,0
1664554124.604,-8.301,101.562,-76.172,133.789,0
1664554124.608,-60.059,46.875,7.324,-41.504,0
1664554124.612,-132.324,49.316,-54.688,35.156,0
1664554124.616,-127.441,98.145,-94.238,117.188,0
1664554124.620,-37.109,10.254,-85.938,73.242,0
1664554124.624,-85.938,-13.672,-63.477,140.625,0
1664554124.628,-182.129,43.945,-38.086,171.387,0
1664554124.631,-266.113,57.617,-68.359,65.430,0
1664554124.635,-398.438,60.547,19.531,-148.438,0
1664554124.639,-235.840,67.383,-57.617,-72.266,0
1664554124.643,-137.695,22.461,-141.113,221.680,0
1664554124.647,-324.219,62.500,-68.848,105.957,0
1664554124.650,-425.293,69.336,-21.973,-171.387,0
1664554124.654,-290.527,-2.930,-82.031,69.824,0
1664554124.658,-276.367,-33.203,-118.164,179.688,0
1664554124.662,-381.348,-39.062,-33.691,69.336,0
1664554124.666,-482.422,-1.953,-4.395,4.395,0
1664554124.670,-470.215,23.438,-56.152,-26.367,0
1664554124.674,-394.531,-19.043,-70.312,68.359,0
1664554124.677,-421.875,-23.926,-28.320,173.340,0
1664554124.681,-682.617,36.133,14.160,-79.590,0
1664554124.685,-707.031,78.125,-72.754,-215.332,0
1664554124.689,-519.043,31.738,-125.977,46.875,0
1664554124.693,-591.797,-20.020,-77.148,139.648,0
1664554124.695,-711.914,-11.719,-83.008,96.680,0
1664554124.699,-718.262,-17.578,-103.027,46.875,0
1664554124.703,-675.293,-71.289,-73.242,64.941,0
1664554124.707,-750.488,-24.902,-59.570,142.578,0
1664554124.711,-797.363,0.488,-80.078,40.039,0
1664554124.715,-814.941,-54.688,-47.363,-36.621,0
1664554124.719,-821.289,-46.387,-26.855,94.238,0
1664554124.722,-846.680,6.836,-60.547,67.383,0
1664554124.726,-851.562,-33.203,-81.543,-62.500,0
1664554124.730,-833.008,-60.547,-61.523,16.113,0
1664554124.734,-785.156,-41.016,-58.105,86.914,0
1664554124.738,-754.395,-47.852,-53.711,56.152,0
1664554124.740,-725.098,-43.945,-65.918,20.996,0
1664554124.744,-722.168,-46.387,-58.594,-5.859,0
1664554124.748,-690.430,-60.059,-29.785,2.930,0
1664554124.752,-604.004,-63.477,-54.688,23.926,0
1664554124.756,-567.383,-67.383,-60.547,24.414,0
1664554124.760,-584.961,-66.406,-49.805,-25.879,0
1664554124.764,-530.762,-73.730,-39.062,-28.320,0
1664554124.767,-474.609,-73.730,-55.664,5.371,0
1664554124.771,-444.824,-58.594,-70.801,-17.578,0
1664554124.775,-415.039,-66.895,-53.711,-58.594,0
1664554124.779,-408.203,-69.336,-52.246,-88.867,0
1664554124.783,-353.027,-62.012,-63.965,-48.340,0
1664554124.796,-280.273,-67.383,-55.664,-26.855,0
1664554124.800,-257.812,-72.754,-43.457,-41.992,0
1664554124.804,-278.809,-76.660,-50.293,-94.727,0
1664554124.808,-242.676,-75.195,-70.801,-85.449,0
1664554124.812,-181.641,-76.660,-66.895,-40.039,0
1664554124.816,-148.438,-85.938,-41.504,-34.668,0
1664554124.820,-172.363,-93.262,-40.039,-86.914,0
1664554124.823,-168.945,-82.520,-58.594,-106.445,0
1664554124.827,-111.328,-81.543,-54.199,-56.641,0
1664554124.831,-91.309,-92.285,-55.664,-65.430,0
1664554124.835,-119.629,-92.773,-62.012,-133.301,0
1664554124.839,-126.953,-83.984,-64.453,-148.438,0
1664554124.845,-82.520,-81.055,-57.129,-83.496,0
1664554124.849,-74.707,-91.797,-50.293,-72.754,0
1664554124.853,-101.562,-93.262,-50.781,-120.117,0
1664554124.857,-122.070,-90.820,-55.664,-146.484,0
1664554124.861,-87.891,-83.008,-54.199,-96.680,0
1664554124.865,-59.570,-89.844,-46.875,-65.430,0
1664554124.869,-86.426,-113.770,-61.035,-110.840,0
1664554124.872,-124.512,-110.352,-67.383,-176.758,0
1664554124.876,-89.355,-115.723,-53.223,-133.789,0
1664554124.880,-51.758,-130.859,-48.828,-61.035,0
1664554124.884,-72.266,-125.977,-66.406,-101.074,0
1664554124.888,-100.586,-125.488,-71.777,-163.086,0
1664554124.904,-74.219,-129.883,-55.664,-119.629,0
1664554124.908,-50.781,-129.395,-54.688,-78.613,0
1664554124.912,-49.805,-131.348,-60.059,-80.566,0
1664554124.916,-76.660,-128.906,-53.711,-116.699,0
1664554124.920,-83.008,-132.324,-42.480,-119.629,0
1664554124.924,-32.227,-144.043,-43.945,-56.641,0
1664554124.928,-25.879,-147.461,-57.617,-55.176,0
1664554124.931,-50.293,-147.461,-58.594,-104.492,0
1664554124.935,-75.195,-146.973,-55.176,-131.836,0
1664554124.939,-44.434,-141.113,-61.035,-83.008,0
1664554124.943,-11.230,-134.277,-61.035,-53.711,0
1664554124.947,-13.184,-131.836,-55.664,-79.102,0
1664554124.935,-33.691,-141.113,-41.504,-105.957,0
1664554124.939,-20.996,-135.742,-47.363,-83.008,0
1664554124.943,9.277,-114.258,-65.918,-67.383,0
1664554124.947,21.484,-117.676,-53.711,-69.824,0
1664554124.951,-16.113,-124.023,-44.922,-122.559,0
1664554124.955,-9.766,-127.441,-44.434,-107.910,0
1664554124.959,35.645,-128.418,-47.852,-48.340,0
1664554124.962,46.387,-125.977,-48.340,-49.316,0
1664554124.966,23.926,-124.023,-48.828,-101.074,0
1664554124.970,-2.930,-122.070,-62.012,-142.578,0
1664554124.974,40.039,-116.699,-62.500,-90.820,0
1664554124.978,71.777,-117.676,-46.875,-51.270,0
1664554124.980,62.012,-128.906,-34.180,-66.895,0
1664554124.984,6.348,-125.977,-52.246,-140.137,0
1664554124.988,26.367,-119.629,-70.801,-126.465,0
1664554124.992,79.102,-122.070,-58.105,-65.430,0
1664554124.996,65.918,-115.234,-41.992,-80.078,0
1664554125.000,30.762,-114.746,-45.410,-136.230,0
1664554125.004,48.340,-113.770,-51.270,-114.746,0
1664554125.007,86.426,-113.770,-38.574,-50.781,0
1664554125.011,76.660,-122.559,-47.363,-65.430,0
1664554125.015,20.020,-109.863,-73.730,-157.715,0
1664554125.019,28.809,-106.445,-57.617,-142.578,0
1664554125.023,74.707,-112.305,-46.875,-65.918,0
1664554125.025,75.195,-103.516,-51.758,-62.500,0
1664554125.029,47.363,-103.516,-47.852,-104.980,0
1664554125.033,35.156,-109.863,-41.992,-117.188,0
1664554125.037,63.477,-102.051,-45.898,-67.383,0
1664554125.041,63.965,-86.914,-58.594,-60.059,0
1664554125.045,45.410,-91.309,-55.176,-91.309,0
1664554125.049,8.789,-94.238,-52.734,-137.207,0
1664554125.052,33.203,-98.145,-51.758,-76.660,0
1664554125.056,31.738,-100.098,-77.148,-52.734,0
1664554125.060,-5.859,-91.797,-96.191,-116.211,0
1664554125.064,-36.133,-100.586,-81.543,-156.250,0
1664554125.068,-30.762,-106.445,-69.336,-119.141,0
1664554125.070,-11.719,-93.750,-72.754,-75.684,0
1664554125.074,-25.391,-92.773,-84.473,-88.867,0
1664554125.078,-62.012,-102.539,-69.824,-122.559,0
1664554125.082,-79.590,-93.262,-67.871,-132.812,0
1664554125.086,-54.688,-87.891,-67.871,-77.637,0
1664554125.090,-39.062,-94.238,-60.059,-54.199,0
1664554125.094,-72.266,-95.703,-52.734,-89.844,0
1664554125.097,-112.305,-99.609,-44.922,-121.094,0
1664554125.101,-103.516,-93.262,-71.289,-102.051,0
1664554125.105,-81.543,-74.707,-71.289,-71.289,0
1664554125.109,-91.309,-71.289,-58.105,-97.656,0
1664554125.113,-146.973,-74.707,-67.383,-161.133,0
1664554125.115,-140.625,-77.148,-72.266,-129.883,0
1664554125.119,-91.797,-74.707,-55.664,-67.383,0
1664554125.123,-82.520,-70.312,-47.852,-79.102,0
1664554125.127,-140.137,-74.219,-63.477,-153.320,0
1664554125.131,-135.254,-72.266,-61.523,-134.277,0
1664554125.135,-86.426,-70.312,-50.781,-55.664,0
1664554125.139,-78.125,-79.590,-41.016,-33.203,0
1664554125.142,-113.281,-75.195,-51.758,-99.121,0
1664554125.146,-153.320,-64.941,-75.195,-154.785,0
1664554125.150,-115.234,-65.918,-67.383,-91.797,0
1664554125.154,-94.727,-66.895,-56.152,-67.383,0
1664554125.158,-119.141,-60.547,-58.594,-116.699,0
1664554125.159,-153.809,-59.570,-64.941,-161.621,0
1664554125.163,-118.164,-59.082,-60.547,-106.934,0
1664554125.167,-85.449,-60.547,-60.059,-69.824,0
1664554125.171,-103.027,-55.664,-70.312,-114.258,0
1664554125.175,-133.789,-53.223,-58.594,-155.273,0
1664554125.179,-110.352,-61.523,-39.551,-98.633,0
1664554125.183,-85.449,-68.359,-49.316,-50.781,0
1664554125.186,-111.328,-63.477,-75.684,-96.680,0
1664554125.190,-153.809,-57.129,-81.543,-167.969,0
1664554125.194,-141.602,-61.523,-64.941,-137.207,0
1664554125.198,-104.004,-64.941,-65.430,-83.496,0
1664554125.202,-101.562,-59.570,-77.148,-104.004,0
1664554125.235,-117.676,-58.594,-66.895,-136.230,0
1664554125.239,-143.066,-61.523,-64.453,-155.762,0
1664554125.243,-110.352,-64.453,-71.777,-99.121,0
1664554125.247,-78.613,-56.152,-75.195,-72.266,0
1664554125.251,-85.449,-52.734,-63.477,-108.398,0
1664554125.255,-118.164,-64.941,-48.828,-141.113,0
1664554125.259,-105.957,-66.406,-60.059,-105.957,0
1664554125.262,-96.680,-63.965,-76.660,-83.984,0
1664554125.266,-98.633,-56.641,-66.895,-98.145,0
1664554125.270,-118.164,-62.012,-43.457,-124.512,0
1664554125.274,-124.023,-59.082,-58.594,-120.117,0
1664554125.278,-91.797,-43.457,-66.895,-74.219,0
1664554125.265,-79.102,-47.852,-47.852,-58.594,0
1664554125.269,-125.000,-50.293,-52.734,-126.465,0
1664554125.273,-153.320,-53.711,-67.871,-161.133,0
1664554125.277,-125.977,-49.805,-63.477,-106.445,0
1664554125.281,-100.098,-42.969,-45.898,-80.078,0
1664554125.285,-130.859,-50.781,-35.156,-130.859,0
1664554125.289,-174.805,-46.387,-44.922,-168.945,0
1664554125.292,-157.715,-46.875,-53.223,-121.582,0
1664554125.296,-139.160,-54.688,-48.828,-92.773,0
1664554125.300,-164.551,-52.734,-50.781,-138.184,0
1664554125.304,-225.586,-41.504,-57.617,-214.844,0
1664554125.308,-215.332,-24.902,-48.828,-182.129,0
1664554125.310,-183.105,-33.691,-20.020,-104.980,0
1664554125.314,-207.031,-52.246,-35.645,-139.648,0
1664554125.318,-274.414,-42.969,-62.500,-251.465,0
1664554125.322,-285.156,-37.109,-43.945,-239.746,0
1664554125.326,-279.785,-36.621,-50.781,-204.102,0
1664554125.330,-286.621,-37.598,-59.082,-223.145,0
1664554125.334,-336.914,-37.109,-58.105,-301.270,0
1664554125.337,-368.652,-14.648,-58.594,-324.707,0
1664554125.341,-351.562,-13.184,-60.547,-272.949,0
1664554125.345,-378.906,-33.203,-73.242,-292.480,0
1664554125.349,-416.504,-29.297,-72.754,-352.539,0
1664554125.353,-435.547,-23.438,-54.199,-375.977,0
1664554125.355,-422.363,-29.785,-51.270,-324.219,0
1664554125.359,-432.617,-31.250,-65.918,-317.383,0
1664554125.363,-437.012,-27.832,-57.129,-348.633,0
1664554125.367,-452.148,-39.551,-39.062,-378.418,0
1664554125.371,-436.035,-54.688,-41.504,-345.215,0
1664554125.375,-409.668,-58.594,-43.457,-284.668,0
1664554125.379,-395.996,-51.758,-41.992,-284.180,0
1664554125.382,-399.414,-55.664,-27.832,-325.684,0
1664554125.386,-394.043,-61.035,-30.273,-299.805,0
1664554125.390,-384.277,-50.781,-66.406,-273.926,0
1664554125.394,-347.656,-42.969,-60.547,-257.812,0
1664554125.398,-341.309,-54.199,-41.992,-273.926,0
1664554125.400,-358.398,-65.918,-54.199,-286.621,0
1664554125.404,-305.664,-53.711,-63.965,-211.914,0
1664554125.408,-276.367,-53.223,-51.270,-173.828,0
1664554125.412,-283.691,-67.383,-52.734,-203.613,0
1664554125.416,-279.297,-71.289,-59.570,-221.191,0
1664554125.420,-215.820,-78.125,-50.293,-143.066,0
1664554125.424,-185.547,-81.055,-46.387,-84.961,0
1664554125.427,-179.688,-85.449,-39.062,-77.148,0
1664554125.431,-206.543,-79.590,-59.082,-136.719,0
1664554125.435,-183.105,-62.012,-78.125,-123.047,0
1664554125.439,-109.863,-71.777,-59.082,-37.109,0
1664554125.443,-91.309,-85.449,-57.129,-32.227,0
1664554125.445,-135.742,-82.520,-71.777,-85.938,0
1664554125.449,-118.652,-73.242,-75.684,-69.336,0
1664554125.453,-51.270,-87.402,-63.965,7.812,0
1664554125.457,-28.320,-89.844,-59.082,28.320,0
1664554125.461,-36.621,-80.566,-71.289,-18.555,0
1664554125.465,-46.875,-96.191,-74.219,-42.480,0
1664554125.469,4.395,-99.121,-60.547,38.086,0
1664554125.472,19.531,-100.098,-71.777,71.289,0
1664554125.476,-19.043,-93.750,-96.680,-0.488,0
1664554125.480,-20.996,-87.402,-75.195,-35.645,0
1664554125.484,23.926,-83.984,-64.941,26.367,0
1664554125.488,43.457,-76.660,-75.684,57.617,0
1664554125.490,41.504,-70.312,-79.102,32.715,0
1664554125.494,17.578,-72.754,-73.730,-10.254,0
1664554125.498,35.156,-81.543,-78.613,5.371,0
1664554125.502,67.383,-76.660,-83.496,45.898,0
1664554125.506,72.266,-70.801,-74.707,47.363,0
1664554125.510,43.457,-75.684,-68.359,3.906,0
1664554125.514,41.504,-87.891,-53.223,20.996,0
1664554125.517,60.547,-80.566,-67.383,58.105,0
1664554125.521,46.875,-64.453,-88.867,41.504,0
1664554125.525,44.434,-66.895,-66.895,25.391,0
1664554125.529,21.484,-73.730,-59.082,-9.277,0
1664554125.533,47.363,-76.660,-64.941,40.039,0
1664554125.534,69.824,-72.754,-64.941,72.266,0
1664554125.538,58.594,-75.684,-54.688,41.504,0
1664554125.542,25.391,-80.566,-55.664,-6.836,0
1664554125.546,30.273,-75.684,-67.383,11.230,0
1664554125.550,54.688,-73.730,-68.848,53.711,0
1664554125.554,63.965,-80.566,-49.805,57.617,0
1664554125.558,13.672,-89.355,-42.969,0.977,0
1664554125.561,-14.160,-83.008,-73.730,-28.320,0
1664554125.565,12.207,-75.195,-73.242,23.438,0
1664554125.569,28.809,-73.242,-48.340,39.551,0
1664554125.573,-13.184,-73.730,-53.223,-27.832,0
1664554125.577,-39.062,-73.242,-70.312,-55.664,0
1664554125.595,6.836,-62.988,-61.523,18.066,0
1664554125.599,20.020,-61.035,-47.852,41.504,0
1664554125.603,-20.020,-68.359,-61.523,-24.902,0
1664554125.607,-66.895,-64.453,-68.848,-69.336,0
1664554125.611,-28.320,-52.246,-51.270,-7.324,0
1664554125.615,0.000,-64.453,-38.574,34.668,0
1664554125.619,-29.785,-75.684,-48.828,-9.766,0
1664554125.622,-85.938,-64.941,-62.012,-82.520,0
1664554125.626,-66.895,-63.477,-50.781,-43.457,0
1664554125.630,-32.715,-71.777,-42.480,23.926,0
1664554125.634,-49.805,-67.871,-60.547,-9.277,0
1664554125.638,-94.727,-62.012,-63.965,-82.031,0
1664554125.640,-87.891,-60.059,-42.969,-54.199,0
1664554125.644,-53.223,-62.500,-41.504,6.836,0
1664554125.648,-53.711,-61.523,-58.105,-10.742,0
1664554125.652,-75.684,-60.059,-55.664,-57.617,0
1664554125.656,-91.309,-62.988,-41.992,-66.406,0
1664554125.660,-63.477,-70.312,-40.527,-9.766,0
1664554125.664,-61.523,-71.777,-52.246,0.488,0
1664554125.667,-87.402,-62.500,-55.176,-56.152,0
1664554125.671,-105.469,-58.105,-37.598,-83.008,0
1664554125.675,-80.566,-63.965,-40.039,-38.574,0
1664554125.679,-80.566,-51.758,-66.895,-46.875,0
1664554125.683,-86.914,-44.922,-59.082,-61.523,0
1664554125.685,-118.164,-50.781,-51.270,-94.727,0
1664554125.689,-112.305,-50.781,-53.223,-81.055,0
1664554125.693,-79.102,-50.293,-57.129,-28.320,0
1664554125.697,-72.754,-43.457,-54.199,-30.762,0
1664554125.701,-109.863,-49.805,-47.363,-85.938,0
1664554125.705,-116.699,-61.035,-45.898,-75.684,0
1664554125.709,-78.613,-55.176,-48.340,-20.996,0
1664554125.712,-77.148,-51.758,-56.641,-28.320,0
1664554125.716,-108.398,-61.035,-48.828,-60.547,0
1664554125.720,-154.785,-55.664,-65.430,-110.352,0
1664554125.724,-137.207,-40.527,-84.473,-76.660,0
1664554125.728,-100.586,-44.434,-60.547,-27.832,0
1664554125.729,-120.605,-48.340,-51.270,-71.777,0
1664554125.733,-171.875,-43.945,-65.430,-137.207,0
1664554125.737,-141.113,-40.527,-65.430,-87.402,0
1664554125.741,-102.539,-42.969,-51.758,-28.320,0
1664554125.745,-121.094,-48.340,-50.293,-58.105,0
1664554125.749,-166.504,-54.688,-52.246,-111.328,0
1664554125.753,-154.785,-52.734,-57.129,-93.262,0
1664554125.756,-100.586,-54.688,-47.363,-34.668,0
1664554125.760,-102.539,-62.988,-38.574,-27.344,0
1664554125.764,-171.875,-57.617,-62.988,-114.746,0
1664554125.768,-185.547,-49.805,-64.453,-129.395,0
1664554125.772,-141.113,-49.316,-48.828,-56.152,0
1664554125.775,-125.488,-50.293,-47.363,-46.387,0
1664554125.779,-144.531,-47.852,-53.223,-101.074,0
1664554125.783,-160.156,-45.410,-50.781,-129.883,0
1664554125.787,-122.559,-54.688,-50.293,-74.219,0
1664554125.791,-102.539,-57.129,-56.152,-50.781,0
1664554125.795,-110.352,-53.711,-52.734,-77.148,0
1664554125.799,-147.461,-55.176,-52.734,-126.953,0
1664554125.802,-115.723,-67.871,-45.898,-85.938,0
1664554125.806,-98.633,-65.430,-62.500,-59.082,0
1664554125.810,-123.535,-47.363,-72.754,-96.680,0
1664554125.814,-136.719,-49.805,-46.875,-125.488,0
1664554125.818,-127.930,-57.617,-45.410,-105.469,0
1664554125.820,-101.562,-55.176,-57.617,-61.035,0
1664554125.824,-84.961,-50.781,-54.688,-59.570,0
1664554125.828,-96.680,-62.012,-43.457,-92.285,0
1664554125.832,-113.281,-72.266,-45.898,-102.539,0
1664554125.836,-84.961,-56.152,-54.688,-56.641,0
1664554125.840,-48.340,-49.316,-43.457,-30.762,0
1664554125.844,-55.176,-61.035,-21.973,-51.270,0
1664554125.847,-102.051,-69.336,-22.461,-89.355,0
1664554125.851,-86.914,-54.688,-53.711,-78.613,0
1664554125.855,-50.293,-48.828,-53.223,-46.875,0
1664554125.859,-52.246,-58.594,-38.086,-53.711,0
1664554125.863,-104.980,-56.152,-44.922,-111.816,0
1664554125.865,-92.773,-46.387,-55.664,-93.750,0
1664554125.869,-40.527,-46.875,-43.457,-27.832,0
1664554125.873,-47.363,-50.781,-43.457,-42.969,0
1664554125.877,-92.285,-47.363,-50.781,-106.445,0
1664554125.881,-83.984,-42.969,-45.410,-93.262,0
1664554125.885,-37.598,-45.898,-45.898,-33.203,0
1664554125.889,-19.531,-55.176,-33.691,-3.906,0
1664554125.892,-65.918,-59.082,-42.969,-75.195,0
1664554125.896,-95.215,-43.945,-59.570,-126.953,0
1664554125.900,-24.414,-39.062,-37.109,-41.504,0
1664554125.904,-7.812,-44.922,-40.527,-20.020,0
1664554125.908,-40.527,-41.504,-57.617,-79.590,0
1664554125.909,-64.941,-44.922,-55.664,-121.094,0
1664554125.913,-22.949,-51.758,-44.922,-61.035,0
1664554125.917,2.441,-56.152,-44.922,-24.902,0
1664554125.921,-2.441,-59.082,-48.828,-54.199,0
1664554125.925,-33.691,-53.711,-48.340,-104.492,0
1664554125.929,-9.766,-56.152,-37.598,-69.824,0
1664554125.933,32.227,-60.059,-26.855,-9.277,0
1664554125.936,5.859,-54.688,-54.199,-57.129,0
1664554125.940,-27.832,-46.387,-54.199,-125.977,0
1664554125.944,-20.020,-51.758,-33.203,-102.539,0
1664554125.948,18.066,-55.176,-43.945,-49.805,0
1664554125.952,29.297,-41.016,-54.688,-55.176,0
1664554125.969,12.207,-41.992,-46.875,-93.750,0
1664554125.973,-12.207,-46.387,-44.922,-121.582,0
1664554125.977,20.020,-45.410,-53.223,-75.195,0
1664554125.981,40.527,-39.551,-56.641,-50.293,0
1664554125.985,32.715,-38.574,-44.922,-80.078,0
1664554125.989,7.324,-46.875,-34.180,-106.445,0
1664554125.993,17.090,-48.340,-41.016,-66.895,0
1664554125.996,28.320,-42.969,-57.129,-59.082,0
1664554126.000,16.602,-46.387,-59.570,-87.402,0
1664554126.004,-19.531,-60.059,-45.898,-114.746,0
1664554126.008,-30.762,-56.641,-62.012,-115.723,0
1664554126.012,0.977,-40.039,-62.988,-81.055,0
1664554126.015,10.742,-39.551,-38.574,-71.289,0
1664554126.019,-39.551,-49.316,-44.434,-130.371,0
1664554126.023,-60.059,-46.387,-52.734,-147.461,0
1664554126.027,-16.602,-39.062,-49.805,-95.215,0
1664554126.031,-0.977,-34.180,-35.156,-69.336,0
1664554126.035,-26.367,-45.410,-28.809,-103.516,0
1664554126.039,-63.965,-56.152,-49.805,-151.367,0
1664554126.042,-35.156,-50.293,-57.617,-104.980,0
1664554126.046,-1.953,-53.711,-38.086,-54.199,0
1664554126.050,-22.461,-61.035,-40.039,-88.379,0
1664554126.054,-90.332,-48.828,-76.660,-184.082,0
1664554126.058,-57.129,-37.598,-64.941,-128.906,0
1664554126.060,-11.230,-43.457,-42.480,-57.129,0
1664554126.064,-30.762,-49.316,-51.270,-89.844,0
1664554126.068,-71.777,-49.805,-57.129,-147.461,0
1664554126.072,-68.848,-52.246,-46.387,-128.418,0
1664554126.076,-33.691,-49.316,-42.969,-72.266,0
1664554126.080,-25.391,-49.316,-45.898,-64.453,0
1664554126.084,-61.035,-56.152,-46.875,-127.930,0
1664554126.087,-77.148,-55.176,-47.852,-158.691,0
1664554126.091,-28.320,-56.641,-41.016,-85.449,0
1664554126.095,-29.785,-52.734,-49.316,-83.984,0
1664554126.099,-53.711,-46.875,-55.176,-133.789,0
1664554126.103,-82.031,-53.223,-45.410,-154.785,0
1664554126.105,-55.176,-44.922,-51.270,-113.281,0
1664554126.109,-31.250,-36.133,-59.570,-85.938,0
1664554126.113,-45.410,-42.969,-57.617,-112.793,0
1664554126.117,-80.078,-50.781,-49.316,-155.762,0
1664554126.121,-45.410,-45.898,-45.410,-118.164,0
1664554126.125,-3.418,-43.457,-47.852,-67.383,0
1664554126.129,-19.531,-47.363,-50.781,-88.867,0
1664554126.132,-48.340,-52.734,-34.180,-121.582,0
1664554126.136,-49.805,-54.688,-43.457,-117.188,0
1664554126.140,-30.273,-42.480,-73.242,-97.168,0
1664554126.144,-4.883,-33.203,-59.082,-77.637,0
1664554126.148,-21.973,-39.062,-46.387,-108.887,0
1664554126.150,-45.898,-45.410,-40.039,-131.348,0
1664554126.154,-10.742,-42.480,-53.223,-81.055,0
1664554126.158,0.000,-43.945,-64.941,-52.734,0
1664554126.162,-20.996,-48.828,-55.664,-89.844,0
1664554126.166,-35.156,-51.758,-53.223,-136.230,0
1664554126.170,4.395,-52.246,-55.664,-84.473,0
1664554126.174,30.762,-55.176,-55.664,-40.527,0
1664554126.177,42.969,-61.523,-32.227,-32.227,0
1664554126.181,-3.418,-60.547,-44.922,-95.703,0
1664554126.185,0.488,-52.246,-67.871,-99.121,0
1664554126.189,58.594,-43.945,-53.223,-25.391,0
1664554126.193,62.988,-53.223,-47.852,-24.902,0
1664554126.195,21.973,-54.688,-58.105,-88.379,0
1664554126.199,19.043,-42.969,-66.895,-93.262,0
1664554126.203,71.777,-49.805,-49.805,-19.043,0
1664554126.207,81.543,-49.316,-45.410,1.953,0
1664554126.211,49.316,-41.016,-54.688,-45.898,0
1664554126.215,20.996,-47.363,-50.293,-75.195,0
1664554126.219,74.707,-54.199,-36.133,-2.441,0
1664554126.222,98.145,-56.152,-34.668,28.320,0
1664554126.226,45.898,-44.434,-74.707,-60.059,0
1664554126.230,27.832,-44.434,-69.824,-97.168,0
1664554126.234,66.895,-46.387,-56.152,-30.273,0
1664554126.238,88.867,-43.945,-60.059,7.812,0
1664554126.240,82.031,-44.434,-61.035,-15.137,0
1664554126.244,37.598,-45.410,-51.758,-61.523,0
1664554126.248,36.133,-52.246,-47.363,-33.691,0
1664554126.252,62.500,-58.105,-58.105,15.137,0
1664554126.256,61.035,-55.664,-54.688,3.906,0
1664554126.260,34.180,-52.246,-38.086,-44.922,0
1664554126.264,37.598,-59.570,-24.902,-18.555,0
1664554126.267,58.105,-60.547,-41.504,24.414,0
1664554126.271,54.688,-46.875,-64.453,-1.465,0
1664554126.275,44.434,-40.039,-56.641,-35.645,0
1664554126.279,5.371,-47.852,-48.828,-61.523,0
1664554126.283,27.344,-54.688,-55.664,-21.973,0
1664554126.284,35.645,-47.852,-68.359,-11.230,0
1664554126.288,19.043,-48.828,-52.246,-20.996,0
1664554126.292,-16.113,-48.340,-46.875,-63.965,0
1664554126.296,-10.254,-42.480,-62.500,-57.617,0
1664554126.300,13.184,-42.480,-54.199,-15.137,0
1664554126.304,19.043,-51.270,-35.645,-10.254,0
1664554126.308,-20.508,-66.406,-39.551,-49.805,0
1664554126.311,-40.527,-58.594,-61.035,-76.172,0
1664554126.315,-3.418,-42.969,-57.617,-31.250,0
1664554126.319,4.883,-41.016,-51.758,-22.949,0
1664554126.323,-37.598,-41.016,-55.664,-91.309,0
1664554126.327,-71.777,-42.969,-62.012,-120.605,0
1664554126.345,-34.668,-45.898,-60.547,-66.895,0
1664554126.349,-34.668,-50.781,-63.965,-44.434,0
1664554126.353,-74.219,-55.176,-65.918,-82.520,0
1664554126.357,-106.934,-56.641,-57.617,-129.883,0
1664554126.361,-73.730,-56.641,-58.594,-78.613,0
1664554126.365,-46.875,-63.965,-54.688,-27.832,0
1664554126.369,-74.707,-64.941,-60.059,-71.777,0
1664554126.372,-120.605,-59.082,-70.312,-142.090,0
1664554126.376,-100.586,-58.105,-66.895,-105.469,0
1664554126.380,-55.176,-60.059,-52.734,-20.020,0
1664554126.384,-74.219,-61.523,-66.895,-47.363,0
1664554126.388,-133.301,-60.059,-78.125,-141.602,0
1664554126.390,-114.746,-55.664,-60.059,-112.305,0
1664554126.394,-71.777,-54.688,-62.012,-47.852,0
1664554126.398,-76.172,-55.176,-70.312,-58.594,0
1664554126.402,-109.863,-52.246,-66.895,-109.375,0
1664554126.406,-130.859,-52.246,-57.129,-127.441,0
1664554126.410,-78.613,-54.199,-51.270,-61.523,0
1664554126.414,-68.359,-55.176,-60.547,-46.875,0
1664554126.417,-104.980,-53.711,-64.941,-95.215,0
1664554126.421,-115.234,-51.270,-42.480,-113.770,0
1664554126.425,-79.102,-49.805,-42.480,-59.082,0
1664554126.429,-76.660,-42.969,-72.754,-59.082,0
1664554126.433,-90.332,-42.969,-61.523,-82.520,0
1664554126.435,-119.629,-50.781,-49.805,-115.723,0
1664554126.439,-102.539,-54.688,-59.082,-107.910,0
1664554126.443,-81.543,-51.270,-57.129,-60.547,0
1664554126.447,-86.426,-52.246,-46.875,-47.852,0
1664554126.451,-103.027,-62.988,-45.898,-109.863,0
1664554126.455,-101.074,-65.430,-44.434,-118.652,0
1664554126.459,-67.383,-54.688,-55.664,-66.895,0
1664554126.462,-60.547,-47.852,-65.430,-65.918,0
1664554126.466,-70.801,-58.594,-38.574,-74.707,0
1664554126.470,-108.398,-54.688,-48.340,-117.676,0
1664554126.474,-91.309,-45.410,-71.777,-90.820,0
1664554126.478,-52.246,-44.434,-56.152,-39.551,0
1664554126.479,-58.594,-35.645,-52.246,-66.406,0
1664554126.483,-99.609,-29.785,-55.176,-117.188,0
1664554126.487,-72.266,-33.691,-48.340,-75.684,0
1664554126.491,-40.527,-37.598,-48.828,-27.344,0
1664554126.495,-52.734,-44.922,-55.176,-57.129,0
1664554126.499,-92.285,-56.152,-57.617,-115.234,0
1664554126.503,-95.703,-56.152,-60.547,-97.656,0
1664554126.506,-54.199,-56.152,-48.828,-19.043,0
1664554126.510,-42.480,-53.711,-54.688,-32.227,0
1664554126.514,-122.070,-41.504,-87.402,-136.230,0
1664554126.518,-107.422,-39.062,-79.590,-142.090,0
1664554126.522,-32.715,-44.434,-71.777,-63.965,0
1664554126.524,-50.293,-52.246,-69.336,-52.246,0
1664554126.528,-46.387,-41.992,-62.988,-101.074,0
1664554126.532,-50.293,-39.062,-55.176,-126.953,0
1664554126.536,-20.020,-41.016,-53.223,-72.266,0
1664554126.540,-3.418,-43.945,-58.105,-40.527,0
1664554126.544,-23.926,-48.340,-55.664,-68.359,0
1664554126.548,-46.387,-43.457,-57.129,-127.441,0
1664554126.551,-24.414,-51.270,-49.805,-75.684,0
1664554126.555,-16.113,-53.711,-66.406,-33.203,0
1664554126.559,-11.719,-34.180,-76.660,-74.707,0
1664554126.563,-19.043,-32.715,-55.176,-104.004,0
1664554126.567,-24.414,-43.945,-51.758,-86.426,0
1664554126.569,22.949,-36.621,-58.105,-34.668,0
1664554126.573,17.090,-38.574,-56.152,-27.344,0
1664554126.577,-17.578,-42.480,-44.434,-74.219,0
1664554126.581,-2.441,-39.062,-43.945,-93.750,0
1664554126.585,42.969,-37.598,-50.781,-41.992,0
1664554126.589,38.574,-37.109,-46.387,-23.926,0
1664554126.593,32.227,-35.645,-33.203,-57.617,0
1664554126.596,-53.223,-41.504,-26.855,-93.750,0
1664554126.600,-50.293,-26.855,-56.641,-78.125,0
1664554126.604,42.480,-8.301,-61.035,-44.922,0
1664554126.608,-4.395,-6.836,-41.504,-55.176,0
1664554126.612,-75.684,-7.324,-41.016,-113.770,0
1664554126.614,-45.898,-21.484,-45.898,-88.379,0
1664554126.618,27.344,-4.883,-46.387,-34.180,0
1664554126.622,23.926,2.441,-41.504,-46.875,0
1664554126.626,52.246,-14.648,-43.945,-98.633,0
1664554126.630,57.617,-6.348,-46.875,-95.703,0
1664554126.634,42.480,-4.883,-43.945,-36.133,0
1664554126.638,89.355,-11.230,-35.645,-16.602,0
1664554126.641,42.480,-21.484,-44.922,-86.914,0
1664554126.645,1.953,-17.578,-58.105,-139.160,0
1664554126.649,107.422,14.160,-49.805,-54.199,0
1664554126.653,119.629,18.555,-52.734,-34.180,0
1664554126.657,77.637,13.672,-58.105,-90.820,0
1664554126.659,52.734,24.902,-53.223,-115.723,0
1664554126.663,142.578,39.062,-39.551,-57.617,0
1664554126.667,76.172,35.156,-43.457,-38.574,0
1664554126.671,67.871,43.945,-53.223,-74.219,0
1664554126.675,129.395,68.359,-45.898,-130.371,0
1664554126.679,77.148,49.316,-27.344,-104.004,0
1664554126.683,127.930,36.621,-8.301,-10.254,0
1664554126.686,79.590,82.520,-33.203,-65.918,0
1664554126.690,56.641,90.820,-61.523,-152.344,0
1664554126.694,41.016,58.105,-41.992,-117.676,0
1664554126.698,22.949,44.434,-39.551,-55.664,0
1664554126.702,49.805,52.734,-32.227,-43.945,90
1664554126.720,-9.277,43.945,-29.297,-93.750,0
1664554126.724,-52.246,54.199,-35.156,-173.828,0
1664554126.728,-112.793,51.270,-51.758,-153.809,0
1664554126.732,-111.328,45.898,-55.664,-81.055,0
1664554126.736,-93.750,89.355,-52.246,-186.035,0
1664554126.740,-137.695,72.754,-51.270,-174.316,0
1664554126.744,-191.895,72.266,-29.297,-47.852,0
1664554126.747,-161.133,60.547,-46.875,-140.625,0
1664554126.751,-268.555,29.297,-27.832,-136.719,0
1664554126.755,-375.977,12.695,-15.137,-136.719,0
1664554126.759,-214.355,83.984,-83.984,-229.492,0
1664554126.763,-163.086,102.539,-85.449,-154.297,0
1664554126.765,-294.434,-17.090,0.977,-35.645,0
1664554126.769,-289.551,15.137,-20.508,-112.793,0
1664554126.773,-153.809,54.688,-51.758,-145.508,0
1664554126.777,-166.504,20.508,-60.059,37.598,0
1664554126.781,-84.473,45.410,-62.012,102.051,0
1664554126.785,-83.496,26.367,-48.340,-70.801,0
1664554126.789,-291.992,3.906,-38.574,-178.223,0
1664554126.792,-230.957,32.227,-16.113,-102.539,0
1664554126.796,-356.934,38.086,-7.812,-120.117,0
1664554126.800,-140.137,-19.043,-32.715,-202.637,0
1664554126.804,-15.137,150.391,-85.938,-130.371,0
1664554126.808,-158.203,133.789,-46.875,-99.121,0
1664554126.810,173.340,-23.926,-84.961,-48.340,0
1664554126.814,44.434,47.363,-11.719,-3.418,0
1664554126.818,15.137,15.137,-3.906,-74.219,0
1664554126.822,-86.914,27.832,-82.031,-74.219,0
1664554126.826,21.973,97.168,-50.293,-143.555,0
1664554126.830,392.578,3.906,-46.387,34.180,0
1664554126.834,90.332,53.711,-61.035,59.570,0
1664554126.837,241.211,64.453,-35.156,-64.453,0
1664554126.841,420.898,0.977,-6.836,-43.457,0
1664554126.845,416.016,10.742,-51.270,61.523,0
1664554126.849,524.414,54.688,-131.836,128.906,0
1664554126.853,260.254,95.215,-125.977,-142.090,0
1664554126.855,474.609,40.527,-51.270,-143.555,0
1664554126.859,956.543,105.469,-104.980,87.402,0
1664554126.863,625.977,103.516,-98.145,-126.465,0
1664554126.867,519.531,96.191,-87.891,-62.988,0
1664554126.871,718.262,57.617,-32.715,150.391,0
1664554126.875,663.574,-28.320,47.852,107.910,0
1664554126.879,694.824,2.930,-21.973,159.180,0
1664554126.882,640.625,85.449,-101.074,142.578,0
1664554126.886,614.746,131.348,-96.680,83.496,0
1664554126.890,592.285,37.598,-118.164,10.254,0
1664554126.894,755.859,14.648,-81.055,194.336,0
1664554126.898,591.309,50.293,-37.598,89.355,0
1664554126.916,295.898,28.320,-69.336,-5.859,0
1664554126.920,390.625,90.820,-67.383,13.672,0
1664554126.924,456.543,103.027,-59.082,70.312,0
1664554126.928,263.184,57.129,-48.828,-8.789,0
1664554126.932,257.812,104.492,-40.039,-126.953,0
1664554126.936,305.664,84.473,-49.316,117.676,0
1664554126.940,316.406,20.996,-48.340,149.414,0
1664554126.943,168.457,76.660,-87.402,1.953,0
1664554126.947,54.688,113.281,-100.586,33.203,0
1664554126.951,92.773,97.168,-50.781,83.008,0
1664554126.955,62.988,48.828,-52.734,97.656,0
1664554126.959,175.781,17.090,-46.875,90.820,0
1664554126.945,-133.301,124.023,-42.480,13.672,0
1664554126.949,-182.129,139.160,-79.590,-2.930,0
1664554126.953,170.898,30.762,-49.316,81.055,0
1664554126.957,12.207,30.273,-74.219,145.508,0
1664554126.961,-45.410,52.734,-62.500,145.508,0
1664554126.965,-29.297,24.902,-45.410,-55.664,0
1664554126.969,31.738,-4.883,-27.344,102.051,0
1664554126.972,-101.562,104.492,-45.410,102.539,0
1664554126.976,-157.715,102.539,-108.887,-27.344,0
1664554126.980,-89.355,3.906,-64.453,169.922,0
1664554126.984,-145.020,25.391,7.324,187.500,0
1664554126.988,-214.355,104.980,2.441,-69.824,0
1664554126.990,-121.094,134.277,-86.426,74.707,0
1664554126.994,-146.973,28.320,-38.086,94.238,0
1664554126.998,-206.543,-4.883,-44.434,-38.574,0
1664554127.002,-152.832,37.598,-78.613,167.480,0
1664554127.006,-223.633,1.953,28.320,22.461,0
1664554127.010,-283.691,64.453,-32.227,-38.086,0
1664554127.014,-268.555,64.941,-99.609,35.156,0
1664554127.017,-217.773,-30.762,-26.367,59.082,0
1664554127.021,-287.598,4.395,-50.781,118.164,0
1664554127.025,-401.367,16.113,-54.688,99.609,0
1664554127.029,-431.152,19.043,-57.129,23.438,0
1664554127.033,-402.832,15.137,-50.781,78.613,0
1664554127.034,-413.086,19.531,-54.199,106.934,0
1664554127.038,-459.473,10.254,-49.805,51.270,0
1664554127.042,-483.887,4.883,-40.527,-7.812,0
1664554127.046,-506.836,5.371,-53.223,-17.578,0
1664554127.050,-535.645,4.883,-47.363,14.160,0
1664554127.054,-534.180,-13.184,-23.926,56.152,0
1664554127.058,-591.309,-31.738,-20.996,-2.930,0
1664554127.061,-622.070,-26.367,-48.828,-42.969,0
1664554127.065,-588.867,-16.113,-60.059,-17.090,0
1664554127.069,-567.871,-31.250,-40.039,-3.906,0
1664554127.073,-617.188,-36.133,-42.969,-62.500,0
1664554127.077,-633.789,-34.180,-55.664,-106.445,0
1664554127.095,-566.406,-38.574,-45.410,-44.434,0
1664554127.099,-529.297,-37.598,-36.133,-16.602,0
1664554127.103,-531.250,-35.156,-39.551,-59.082,0
1664554127.107,-530.762,-33.691,-38.574,-104.004,0
1664554127.111,-477.539,-35.645,-36.133,-60.059,0
1664554127.115,-426.270,-41.992,-29.785,-15.137,0
1664554127.119,-420.898,-41.992,-33.691,-49.805,0
1664554127.122,-437.988,-41.016,-42.480,-117.676,0
1664554127.126,-393.066,-50.293,-38.574,-98.633,0
1664554127.130,-319.336,-61.523,-29.297,-36.621,0
1664554127.134,-314.941,-60.547,-34.668,-56.641,0
1664554127.138,-355.957,-56.641,-34.668,-124.023,0
1664554127.140,-338.379,-62.012,-30.273,-125.488,0
1664554127.144,-275.879,-64.941,-28.320,-80.566,0
1664554127.148,-255.371,-67.383,-30.762,-87.402,0
1664554127.152,-272.949,-69.824,-30.273,-137.207,0
1664554127.156,-280.762,-78.125,-20.508,-153.320,0
1664554127.160,-235.352,-91.309,-21.484,-93.262,0
1664554127.164,-204.590,-92.285,-32.227,-80.566,0
1664554127.167,-211.426,-95.215,-34.668,-126.953,0
1664554127.171,-232.422,-104.980,-24.414,-156.738,0
1664554127.175,-217.285,-115.234,-32.715,-122.070,0
1664554127.179,-213.379,-111.816,-60.547,-120.117,0
1664554127.183,-214.844,-103.516,-52.246,-140.137,0
1664554127.184,-239.746,-115.723,-46.387,-191.895,0
1664554127.188,-224.121,-129.883,-60.059,-186.523,0
1664554127.192,-170.898,-125.977,-67.383,-145.996,0
1664554127.196,-150.879,-120.117,-61.035,-138.672,0
1664554127.200,-174.316,-131.348,-53.711,-170.410,0
1664554127.204,-179.688,-139.648,-52.734,-172.852,0
1664554127.208,-151.855,-137.207,-66.406,-122.070,0
1664554127.211,-141.113,-133.789,-67.383,-108.398,0
1664554127.215,-137.207,-144.531,-44.434,-115.234,0
1664554127.219,-170.410,-150.879,-64.453,-167.480,0
1664554127.223,-143.555,-138.184,-88.867,-151.855,0
1664554127.227,-88.867,-139.160,-71.289,-95.703,0
1664554127.229,-95.215,-145.508,-65.918,-124.023,0
1664554127.233,-125.977,-143.066,-73.730,-187.012,0
1664554127.237,-88.379,-139.648,-75.195,-145.996,0
1664554127.241,-38.086,-139.648,-67.383,-82.031,0
1664554127.245,-36.621,-141.602,-64.941,-103.516,0
1664554127.249,-71.777,-139.648,-66.895,-164.062,0
1664554127.253,-61.035,-133.301,-64.453,-135.742,0
1664554127.256,-0.977,-139.160,-59.082,-64.941,0
1664554127.260,12.207,-147.949,-62.012,-64.941,0
1664554127.264,-29.297,-127.441,-75.684,-140.625,0
1664554127.268,-22.949,-116.699,-57.129,-129.395,0
1664554127.272,13.184,-125.000,-59.082,-61.523,0
1664554127.275,29.297,-121.582,-70.312,-59.570,0
1664554127.279,13.184,-113.770,-62.500,-96.191,0
1664554127.283,-22.949,-116.699,-62.500,-133.301,0
1664554127.287,7.812,-118.164,-66.406,-92.773,0
1664554127.291,36.621,-113.281,-64.453,-60.547,0
1664554127.295,33.203,-118.164,-51.758,-77.148,0
1664554127.299,-8.789,-116.699,-55.176,-127.441,0
1664554127.302,11.230,-123.535,-47.852,-86.426,0
1664554127.306,25.391,-124.512,-60.059,-59.082,0
1664554127.310,7.812,-104.492,-78.613,-102.051,0
1664554127.314,-6.348,-100.586,-57.129,-134.766,0
1664554127.318,-12.207,-105.957,-53.711,-123.047,0
1664554127.320,15.625,-106.934,-60.059,-62.012,0
1664554127.324,27.344,-102.539,-58.594,-59.082,0
1664554127.328,10.254,-97.168,-51.270,-107.910,0
1664554127.332,-13.672,-100.586,-52.246,-124.023,0
1664554127.336,13.672,-96.191,-65.918,-78.125,0
1664554127.340,35.645,-87.402,-60.547,-53.711,0
1664554127.344,25.391,-97.656,-41.992,-72.754,0
1664554127.347,-5.859,-110.840,-47.852,-112.305,0
1664554127.351,-4.395,-95.703,-76.172,-104.980,0
1664554127.355,29.297,-83.008,-67.383,-60.059,0
1664554127.359,30.273,-83.008,-53.711,-55.176,0
1664554127.363,-13.672,-81.543,-53.711,-110.840,0
1664554127.364,-2.930,-80.078,-62.988,-103.027,0
1664554127.368,41.016,-74.219,-58.105,-44.434,0
1664554127.372,46.387,-77.637,-41.504,-39.062,0
1664554127.376,-6.348,-83.984,-47.852,-100.586,0
1664554127.380,-15.137,-71.777,-56.152,-109.863,0
1664554127.384,36.133,-61.035,-46.387,-41.504,0
1664554127.388,55.176,-71.289,-27.344,-6.348,0
1664554127.391,17.090,-80.078,-43.945,-67.871,0
1664554127.395,-20.996,-63.477,-72.266,-134.277,0
1664554127.399,22.461,-64.453,-59.570,-61.035,0
1664554127.403,31.738,-68.848,-53.223,-29.785,0
1664554127.407,-0.977,-64.453,-63.477,-83.984,0
1664554127.409,-33.203,-59.570,-71.777,-134.766,0
1664554127.413,12.695,-54.688,-58.594,-84.961,0
1664554127.417,40.527,-56.641,-55.176,-37.109,0
1664554127.421,0.977,-57.129,-71.777,-63.965,0
1664554127.425,-37.598,-58.105,-60.547,-121.094,0
1664554127.429,-9.277,-64.941,-41.504,-90.332,0
1664554127.433,22.461,-62.012,-41.992,-33.203,0
1664554127.436,9.766,-51.270,-50.781,-52.246,0
1664554127.440,-33.691,-54.199,-59.570,-123.047,0
1664554127.444,-28.320,-62.012,-45.410,-106.445,0
1664554127.448,17.578,-60.059,-45.410,-36.621,0
1664554127.452,3.418,-41.992,-67.383,-60.059,0
1664554127.469,-16.602,-43.457,-55.176,-91.309,0
1664554127.473,-50.781,-58.105,-49.316,-118.652,0
1664554127.477,-37.109,-52.734,-59.570,-73.242,0
1664554127.481,-14.160,-42.969,-60.059,-39.551,0
1664554127.485,-18.066,-38.574,-42.969,-56.152,0
1664554127.489,-56.641,-48.828,-34.180,-89.355,0
1664554127.493,-48.340,-49.316,-48.828,-72.754,0
1664554127.496,-26.855,-38.574,-57.129,-40.039,0
1664554127.500,-37.598,-46.875,-60.547,-53.711,0
1664554127.504,-68.359,-59.570,-45.898,-97.656,0
1664554127.508,-81.055,-54.688,-52.734,-102.051,0
1664554127.512,-59.082,-43.945,-64.453,-62.012,0
1664554127.515,-38.086,-48.340,-49.805,-55.176,0
1664554127.519,-71.289,-52.246,-49.805,-108.398,0
1664554127.523,-104.980,-45.898,-60.059,-127.441,0
1664554127.527,-71.289,-48.828,-58.594,-70.312,0
1664554127.531,-36.133,-62.500,-50.293,-44.922,0
1664554127.535,-50.293,-65.430,-39.551,-77.148,0
1664554127.539,-98.145,-58.105,-45.410,-125.977,0
1664554127.542,-69.824,-57.129,-52.734,-84.961,0
1664554127.546,-36.621,-63.477,-40.527,-36.133,0
1664554127.550,-57.617,-65.918,-41.992,-67.383,0
1664554127.554,-110.352,-63.477,-60.059,-136.719,0
1664554127.558,-79.590,-57.129,-52.734,-104.492,0
1664554127.560,-18.555,-58.594,-33.203,-30.273,0
1664554127.564,-38.086,-65.430,-43.945,-43.457,0
1664554127.568,-102.539,-56.641,-68.359,-130.859,0
1664554127.572,-90.820,-49.316,-61.523,-111.328,0
1664554127.576,-49.316,-47.852,-54.688,-38.574,0
1664554127.580,-38.086,-60.547,-49.805,-39.551,0
1664554127.584,-84.961,-63.965,-61.523,-108.887,0
1664554127.587,-112.305,-50.781,-64.453,-140.137,0
1664554127.591,-52.246,-60.547,-35.156,-48.828,0
1664554127.595,-43.945,-57.617,-41.992,-37.598,0
1664554127.599,-78.613,-42.480,-63.965,-106.934,0
1664554127.603,-100.098,-55.664,-47.363,-128.418,0
1664554127.605,-70.801,-58.105,-43.945,-76.172,0
1664554127.609,-51.270,-52.734,-54.688,-49.316,0
1664554127.613,-68.359,-53.711,-54.688,-83.008,0
1664554127.617,-100.586,-53.711,-39.062,-116.211,0
1664554127.621,-82.031,-53.223,-35.645,-84.473,0
1664554127.625,-58.105,-54.688,-47.363,-43.945,0
1664554127.629,-70.801,-62.012,-48.340,-55.176,0
1664554127.632,-91.797,-74.219,-35.156,-86.914,0
1664554127.636,-99.121,-75.195,-34.180,-73.730,0
1664554127.640,-104.492,-49.316,-73.242,-69.824,0
1664554127.644,-90.820,-37.109,-75.684,-75.684,0
1664554127.648,-106.445,-50.293,-58.594,-101.562,0
1664554127.650,-136.230,-45.410,-69.824,-132.324,0
1664554127.654,-92.285,-36.621,-72.266,-73.242,0
1664554127.658,-71.289,-46.387,-59.570,-37.598,0
1664554127.662,-99.121,-55.664,-64.941,-85.449,0
1664554127.666,-131.348,-56.152,-63.965,-128.906,0
1664554127.670,-103.516,-58.105,-55.664,-84.473,0
1664554127.674,-76.172,-59.570,-62.988,-51.758,0
1664554127.677,-74.219,-64.453,-48.340,-46.875,0
1664554127.681,-125.977,-63.965,-55.664,-102.051,0
1664554127.685,-127.441,-53.223,-77.148,-116.211,0
1664554127.689,-68.848,-49.805,-56.152,-42.480,0
1664554127.693,-62.500,-51.758,-50.293,-39.551,0
1664554127.695,-98.633,-51.270,-57.617,-101.074,0
1664554127.699,-121.582,-46.875,-57.129,-114.746,0
1664554127.703,-78.613,-49.316,-47.852,-43.457,71
1664554127.707,-56.152,-48.340,-43.457,-24.414,0
1664554127.711,-94.727,-51.270,-44.434,-76.660,0
1664554127.715,-134.766,-58.105,-49.805,-106.934,0
1664554127.719,-91.797,-59.570,-46.875,-53.223,0
1664554127.722,-69.824,-66.406,-44.434,-20.996,0
1664554127.726,-96.680,-56.641,-62.988,-81.543,0
1664554127.730,-127.930,-43.457,-61.035,-133.789,0
1664554127.734,-114.746,-47.852,-51.758,-85.938,0
1664554127.738,-89.355,-52.246,-59.570,-41.992,0
1664554127.739,-96.191,-54.688,-63.477,-66.895,0
1664554127.743,-134.277,-57.129,-59.570,-122.559,0
1664554127.747,-124.512,-58.594,-57.129,-106.934,0
1664554127.751,-76.172,-53.711,-57.129,-46.875,0
1664554127.755,-66.406,-52.734,-50.293,-45.898,0
1664554127.759,-103.027,-67.383,-44.434,-98.633,0
1664554127.763,-112.305,-77.637,-39.062,-92.285,0
1664554127.766,-83.008,-71.777,-51.758,-45.898,0
1664554127.770,-92.773,-54.688,-73.242,-78.125,0
1664554127.774,-99.121,-52.734,-54.199,-101.074,0
1664554127.778,-128.906,-57.129,-50.781,-125.488,0
1664554127.782,-114.746,-54.199,-64.941,-90.820,0
1664554127.783,-87.891,-49.316,-62.988,-57.129,0
1664554127.787,-93.750,-54.688,-49.316,-71.289,0
1664554127.791,-138.672,-63.477,-44.922,-118.164,0
1664554127.795,-144.531,-54.199,-56.641,-105.957,0
1664554127.799,-107.910,-44.434,-61.035,-57.617,0
1664554127.803,-97.168,-43.457,-33.691,-46.387,0
1664554127.807,-142.578,-53.711,-27.832,-91.797,0
1664554127.810,-182.129,-49.805,-71.777,-137.695,0
1664554127.814,-149.414,-41.992,-64.453,-93.750,0
1664554127.818,-125.977,-37.109,-41.016,-57.617,0
1664554127.822,-168.945,-24.902,-55.664,-118.652,0
1664554127.826,-202.148,-19.531,-49.316,-158.203,0
1664554127.843,-163.574,-24.414,-36.133,-115.234,0
1664554127.847,-162.109,-36.133,-46.387,-112.793,0
1664554127.851,-198.730,-36.621,-50.781,-160.156,0
1664554127.855,-238.770,-23.926,-46.875,-217.285,0
1664554127.859,-218.262,-19.531,-45.410,-190.918,0
1664554127.863,-191.406,-33.691,-32.227,-151.855,0
1664554127.867,-213.867,-33.691,-34.668,-194.336,0
1664554127.870,-266.602,-16.602,-44.922,-272.461,0
1664554127.874,-257.324,-24.902,-42.969,-264.160,0
1664554127.878,-234.863,-37.109,-40.527,-211.914,0
1664554127.882,-245.605,-31.738,-53.711,-231.934,0
1664554127.886,-282.715,-28.809,-57.129,-312.500,0
1664554127.888,-291.504,-28.320,-50.781,-327.148,0
1664554127.892,-252.930,-41.992,-44.434,-270.996,0
1664554127.896,-258.789,-47.363,-46.387,-273.438,0
1664554127.900,-271.973,-36.621,-35.156,-322.266,0
1664554127.904,-285.645,-44.922,-28.809,-340.820,0
1664554127.908,-250.000,-58.594,-30.273,-277.344,0
1664554127.912,-233.398,-58.594,-30.273,-254.395,0
1664554127.915,-267.578,-62.012,-31.738,-289.551,0
1664554127.919,-287.109,-67.383,-13.672,-300.293,0
1664554127.923,-244.141,-61.523,-18.555,-248.047,0
1664554127.927,-222.168,-48.828,-56.152,-239.258,0
1664554127.931,-205.566,-49.805,-45.898,-234.863,0
1664554127.933,-220.703,-62.988,-31.250,-258.301,0
1664554127.937,-207.520,-62.988,-41.992,-239.258,0
1664554127.941,-151.367,-57.129,-51.758,-178.223,0
1664554127.945,-124.023,-50.293,-49.805,-163.574,0
1664554127.949,-136.719,-51.270,-35.156,-179.688,0
1664554127.953,-133.789,-54.688,-37.109,-164.551,0
1664554127.957,-90.332,-59.082,-57.129,-106.934,0
1664554127.960,-73.242,-54.688,-64.941,-90.820,0
1664554127.964,-66.895,-59.082,-41.992,-90.332,0
1664554127.968,-91.797,-57.617,-54.688,-123.047,0
1664554127.972,-54.688,-45.898,-79.102,-88.379,0
1664554127.976,-14.648,-61.035,-59.570,-27.344,0
1664554127.978,-33.203,-67.383,-64.941,-56.641,0
1664554127.982,-67.383,-60.059,-74.219,-99.609,0
1664554127.986,-26.855,-59.082,-67.383,-44.922,0
1664554127.990,28.320,-62.988,-62.012,19.531,0
1664554127.994,27.344,-60.059,-66.406,-1.953,0
1664554127.998,-3.418,-62.500,-64.941,-50.293,0
1664554128.002,-2.930,-65.430,-62.988,-30.273,0
1664554128.005,50.781,-71.777,-59.082,35.156,0
1664554128.009,60.547,-82.520,-63.965,44.434,0
1664554128.013,-5.371,-67.871,-87.891,-40.039,0
1664554128.017,-8.301,-56.152,-76.172,-52.246,0
1664554128.021,49.316,-66.895,-64.941,32.227,0
1664554128.023,51.758,-63.477,-72.754,54.199,0
1664554128.027,30.273,-59.082,-74.707,14.648,0
1664554128.031,11.230,-66.406,-70.801,-23.438,0
1664554128.035,40.039,-64.453,-73.242,20.020,0
1664554128.039,63.965,-62.012,-75.195,48.828,0
1664554128.043,57.617,-58.105,-67.383,29.297,0
1664554128.047,32.227,-60.059,-72.754,-15.625,0
1664554128.050,50.781,-76.660,-62.012,23.438,0
1664554128.054,68.359,-73.242,-72.266,58.105,0
1664554128.058,57.617,-54.199,-88.379,20.996,0
1664554128.062,30.762,-58.105,-75.195,-17.090,0
1664554128.066,23.926,-60.547,-71.777,-14.160,0
1664554128.068,41.504,-62.988,-80.078,32.227,0
1664554128.072,44.434,-57.129,-83.496,42.480,0
1664554128.076,28.809,-56.152,-61.523,16.602,0
1664554128.080,5.859,-65.918,-62.012,-12.207,0
1664554128.084,27.344,-61.523,-66.406,27.832,0
1664554128.088,46.875,-59.082,-60.547,47.852,0
1664554128.092,41.016,-62.012,-59.570,11.230,0
1664554128.095,5.859,-71.777,-50.781,-26.855,0
1664554128.099,1.465,-69.336,-75.684,-16.602,0
1664554128.103,31.250,-50.781,-76.660,11.230,0
1664554128.107,37.598,-52.734,-57.617,4.883,0
1664554128.111,-11.719,-60.547,-62.988,-47.363,0
1664554128.129,-12.695,-57.617,-70.312,-32.227,0
1664554128.133,27.832,-52.246,-65.430,21.973,0
1664554128.137,34.180,-47.852,-57.129,19.531,0
1664554128.141,-9.766,-56.152,-64.453,-44.434,0
1664554128.145,-31.250,-63.477,-63.477,-54.199,0
1664554128.149,7.324,-65.918,-53.711,7.812,0
1664554128.153,23.438,-76.172,-40.527,38.574,0
1664554128.156,-7.812,-73.242,-51.758,-23.438,0
1664554128.160,-51.270,-58.105,-80.566,-93.750,0
1664554128.164,-9.277,-57.617,-71.289,-17.578,0
1664554128.168,22.949,-61.523,-55.176,24.414,0
1664554128.172,-12.695,-62.988,-65.430,-28.809,0
1664554128.159,-57.129,-57.129,-69.824,-85.449,0
1664554128.163,-19.531,-54.688,-56.641,-34.668,0
1664554128.167,6.836,-60.547,-53.223,7.324,0
1664554128.171,-21.973,-59.082,-65.918,-40.527,0
1664554128.175,-60.059,-54.199,-57.129,-84.961,0
1664554128.179,-29.785,-62.500,-35.156,-42.480,0
1664554128.183,-1.953,-69.336,-38.574,7.812,0
1664554128.186,-16.602,-62.500,-51.758,-14.648,0
1664554128.190,-45.410,-50.293,-62.500,-81.055,0
1664554128.194,-52.734,-56.641,-44.922,-72.754,0
1664554128.198,-20.996,-62.988,-41.016,-10.254,0
1664554128.202,-33.203,-42.969,-62.500,-31.250,0
1664554128.219,-41.992,-50.293,-53.223,-62.988,0
1664554128.223,-70.801,-60.059,-50.781,-96.191,0
1664554128.227,-59.082,-48.828,-66.406,-72.754,0
1664554128.231,-34.180,-43.945,-68.359,-33.691,0
1664554128.235,-37.598,-51.270,-60.547,-40.039,0
1664554128.239,-66.895,-62.500,-57.129,-84.473,0
1664554128.243,-56.641,-63.965,-65.918,-73.242,0
1664554128.246,-39.551,-55.664,-76.660,-43.457,0
1664554128.250,-31.738,-53.223,-63.965,-43.457,0
1664554128.254,-62.012,-58.594,-47.852,-74.219,0
1664554128.258,-76.172,-59.570,-61.035,-81.055,0
1664554128.262,-19.531,-51.270,-55.176,-9.766,0
1664554128.264,-17.090,-40.527,-48.340,-2.930,0
1664554128.268,-82.520,-41.992,-58.105,-97.168,0
1664554128.272,-119.629,-44.434,-63.477,-129.395,0
1664554128.276,-83.984,-47.852,-75.195,-69.824,0
1664554128.280,-74.707,-54.688,-78.125,-42.480,0
1664554128.284,-119.629,-54.199,-73.730,-85.938,0
1664554128.288,-164.062,-48.340,-76.660,-132.812,0
1664554128.291,-147.461,-40.527,-81.055,-96.680,0
1664554128.295,-126.953,-50.293,-65.430,-50.293,0
1664554128.299,-149.414,-60.059,-61.035,-60.059,0
1664554128.303,-225.098,-46.875,-83.008,-145.996,0
1664554128.307,-229.492,-41.992,-74.707,-112.793,0
1664554128.309,-209.961,-46.875,-67.871,-40.039,0
1664554128.313,-222.168,-45.410,-70.312,-56.152,0
1664554128.317,-251.465,-38.086,-65.918,-115.234,0
1664554128.321,-233.887,-34.180,-58.594,-107.910,0
1664554128.325,-169.434,-41.504,-51.270,-39.551,0
1664554128.329,-147.949,-40.527,-51.270,-40.527,0
1664554128.333,-167.969,-42.480,-53.223,-96.680,0
1664554128.336,-183.594,-44.434,-57.129,-126.953,0
1664554128.340,-117.188,-44.922,-44.922,-42.969,0
1664554128.344,-99.121,-45.410,-45.898,-22.461,0
1664554128.348,-127.930,-37.598,-65.430,-94.727,0
1664554128.352,-134.277,-37.598,-48.340,-114.746,0
1664554128.354,-110.352,-37.109,-46.387,-68.848,0
1664554128.358,-84.473,-40.039,-54.688,-46.387,0
1664554128.362,-80.566,-39.062,-53.711,-66.895,0
1664554128.366,-106.445,-45.898,-44.922,-100.586,0
1664554128.370,-98.633,-49.805,-43.457,-83.496,0
1664554128.374,-64.453,-48.828,-45.898,-37.109,0
1664554128.378,-55.664,-54.688,-46.387,-39.551,0
1664554128.381,-88.379,-56.641,-40.039,-87.402,0
1664554128.385,-106.934,-63.477,-40.039,-89.355,0
1664554128.389,-88.867,-53.711,-68.848,-72.754,0
1664554128.393,-66.406,-41.504,-64.941,-58.594,0
1664554128.397,-84.473,-48.340,-47.852,-84.961,0
1664554128.399,-121.582,-47.852,-59.082,-134.277,0
1664554128.403,-68.848,-41.504,-68.359,-86.914,0
1664554128.407,-37.598,-43.457,-51.270,-45.410,0
1664554128.411,-62.500,-42.969,-42.480,-65.918,0
1664554128.415,-96.191,-41.016,-46.875,-112.305,0
1664554128.419,-67.871,-42.480,-46.387,-80.078,0
1664554128.423,-28.809,-44.922,-52.246,-33.203,0
1664554128.426,-30.762,-53.223,-35.645,-23.438,0
1664554128.430,-88.379,-53.223,-38.086,-83.984,0
1664554128.434,-87.402,-45.898,-56.641,-102.051,0
1664554128.438,-29.297,-42.480,-35.156,-25.391,0
1664554128.442,-30.273,-39.551,-36.621,-25.391,0
1664554128.444,-64.941,-35.645,-50.293,-96.680,0
1664554128.448,-57.617,-33.691,-39.062,-90.820,0
1664554128.452,-3.906,-33.691,-25.879,-11.719,0
1664554128.456,-9.277,-20.020,-33.691,-20.508,0
1664554128.460,-47.852,-7.812,-41.016,-74.219,0
1664554128.464,-69.824,-11.230,-34.180,-98.145,0
1664554128.468,-14.648,-21.484,-17.578,-34.180,0
1664554128.471,8.301,-19.043,-24.902,-1.953,0
1664554128.475,-40.039,-12.695,-55.176,-63.965,0
1664554128.479,-65.918,-15.137,-41.992,-108.887,0
1664554128.483,-32.715,-21.484,-29.297,-59.570,0
1664554128.487,-7.324,-26.855,-39.551,-10.254,0
1664554128.489,-10.254,-22.949,-45.898,-32.227,0
1664554128.493,-50.781,-18.066,-41.992,-91.309,0
1664554128.497,-54.199,-18.066,-37.109,-77.637,0
1664554128.501,-25.879,-14.648,-45.410,-33.203,0
1664554128.505,-24.902,-18.066,-44.922,-35.156,0
1664554128.509,-62.500,-29.297,-39.551,-76.172,0
1664554128.513,-84.473,-36.621,-22.949,-76.172,0
1664554128.516,-59.570,-30.273,-44.434,-39.551,0
1664554128.520,-61.035,-22.949,-72.266,-48.828,0
1664554128.524,-77.148,-29.297,-48.828,-63.965,0
1664554128.528,-114.746,-31.250,-49.316,-109.375,0
1664554128.532,-90.332,-25.879,-54.199,-75.684,0
1664554128.533,-63.965,-23.926,-44.922,-34.180,0
1664554128.537,-71.777,-36.133,-39.062,-48.828,0
1664554128.541,-104.980,-45.898,-37.109,-94.727,0
1664554128.545,-107.910,-43.945,-54.688,-94.238,0
1664554128.549,-65.430,-42.969,-56.152,-39.062,0
1664554128.553,-53.223,-47.852,-37.109,-32.715,0
1664554128.557,-94.238,-58.594,-35.156,-80.566,0
1664554128.560,-114.746,-51.758,-64.453,-108.887,0
1664554128.564,-83.008,-33.203,-71.289,-64.453,0
1664554128.568,-54.688,-39.551,-52.246,-28.320,0
1664554128.572,-87.891,-49.805,-51.758,-82.031,0
1664554128.576,-113.770,-43.945,-54.199,-121.094,0
1664554128.595,-64.453,-33.691,-45.898,-57.617,0
1664554128.599,-45.410,-35.645,-38.574,-25.391,0
1664554128.603,-72.266,-41.992,-45.898,-70.312,0
1664554128.607,-106.934,-39.551,-45.410,-117.676,0
1664554128.611,-70.312,-38.574,-34.668,-60.547,0
1664554128.615,-41.504,-44.434,-31.250,-11.719,0
1664554128.619,-58.594,-51.270,-40.039,-53.711,0
1664554128.622,-104.980,-49.316,-55.176,-124.512,0
1664554128.626,-98.145,-46.387,-56.641,-106.445,0
1664554128.630,-57.617,-53.223,-43.457,-28.809,0
1664554128.634,-75.195,-47.852,-56.641,-36.133,0
1664554128.638,-109.863,-41.016,-60.547,-104.004,0
1664554128.654,-106.445,-51.758,-48.828,-103.027,0
1664554128.658,-64.941,-51.758,-56.152,-40.039,0
1664554128.662,-51.270,-49.805,-60.059,-42.969,0
1664554128.666,-71.777,-43.457,-53.223,-89.355,0
1664554128.670,-86.426,-48.340,-51.270,-104.492,0
1664554128.674,-54.199,-58.105,-52.246,-45.410,0
1664554128.678,-51.758,-48.340,-60.059,-23.926,0
1664554128.681,-67.871,-44.922,-61.035,-62.012,0
1664554128.685,-79.590,-48.340,-38.574,-86.914,0
1664554128.689,-55.664,-50.293,-39.062,-57.129,0
1664554128.693,-51.758,-40.039,-75.195,-56.641,0
1664554128.697,-49.805,-32.715,-69.336,-68.848,0
1664554128.685,-77.148,-42.969,-43.945,-96.680,0
1664554128.689,-91.797,-48.340,-56.641,-102.539,0
1664554128.693,-44.922,-38.086,-77.148,-60.059,0
1664554128.697,-19.043,-38.574,-59.082,-34.668,0
1664554128.701,-74.707,-50.293,-44.434,-91.309,0
1664554128.705,-101.562,-57.617,-42.480,-119.141,0
1664554128.709,-65.918,-61.523,-52.734,-71.289,0
1664554128.712,-49.316,-54.199,-53.711,-48.340,0
1664554128.716,-66.406,-60.547,-35.645,-73.242,0
1664554128.720,-109.375,-70.801,-35.156,-121.582,0
1664554128.724,-79.590,-62.500,-42.969,-77.148,0
1664554128.728,-38.574,-63.477,-33.203,-26.855,0
1664554128.729,-43.945,-76.172,-20.508,-36.133,0
1664554128.733,-105.469,-72.754,-43.945,-117.676,0
1664554128.737,-90.820,-60.059,-58.105,-109.375,0
1664554128.741,-41.992,-62.988,-43.457,-40.527,0
1664554128.745,-44.922,-66.406,-36.621,-49.316,0
1664554128.749,-80.078,-72.266,-40.039,-103.516,0
1664554128.753,-79.590,-75.684,-41.504,-100.586,0
1664554128.756,-29.785,-69.824,-32.227,-24.414,0
1664554128.760,-30.273,-72.754,-33.691,-15.137,0
1664554128.764,-89.355,-67.871,-56.152,-113.281,0
1664554128.768,-102.539,-59.082,-55.176,-138.184,0
1664554128.772,-58.105,-64.453,-48.828,-59.082,0
1664554128.774,-56.152,-69.824,-55.176,-48.340,0
1664554128.778,-76.172,-59.570,-54.688,-95.215,0
1664554128.782,-87.891,-57.617,-44.434,-121.094,0
1664554128.786,-55.176,-60.547,-40.527,-65.430,0
1664554128.790,-39.062,-59.082,-46.387,-35.156,0
1664554128.794,-55.176,-58.105,-44.434,-51.270,0
1664554128.798,-97.168,-59.082,-50.293,-102.539,0
1664554128.801,-74.707,-73.242,-38.574,-61.523,0
1664554128.805,-49.316,-74.707,-45.898,-20.508,0
1664554128.809,-58.105,-57.617,-65.918,-68.848,0
1664554128.813,-73.730,-56.641,-45.898,-99.609,0
1664554128.817,-83.984,-63.965,-41.992,-97.656,0
1664554128.819,-47.852,-59.570,-47.852,-49.316,0
1664554128.823,-29.297,-59.082,-43.945,-28.320,0
1664554128.827,-54.688,-64.941,-34.180,-68.359,0
1664554128.831,-85.449,-62.012,-44.434,-114.258,0
1664554128.835,-54.688,-60.547,-55.664,-63.477,0
1664554128.839,-34.668,-61.035,-45.898,-23.438,0
1664554128.843,-37.109,-70.801,-41.016,-49.316,0
1664554128.846,-79.102,-85.938,-48.340,-102.539,0
1664554128.850,-88.867,-70.801,-71.289,-101.562,0
1664554128.854,-46.875,-62.988,-67.871,-62.500,0
1664554128.858,-40.039,-69.336,-51.270,-58.105,0
1664554128.862,-83.008,-63.965,-49.805,-108.398,0
1664554128.864,-86.914,-62.988,-58.105,-112.793,0
1664554128.868,-46.387,-64.941,-50.293,-54.688,0
1664554128.872,-36.621,-68.359,-41.016,-41.016,0
1664554128.876,-73.730,-72.754,-46.875,-94.238,0
1664554128.880,-83.496,-68.848,-43.945,-105.469,0
1664554128.884,-38.086,-67.383,-42.480,-49.805,0
1664554128.888,-11.230,-77.637,-34.668,-14.160,0
1664554128.891,-45.410,-74.707,-45.898,-67.383,0
1664554128.895,-84.961,-57.129,-64.453,-139.648,0
1664554128.899,-38.574,-56.152,-52.246,-76.172,0
1664554128.903,-13.672,-58.594,-48.828,-33.203,0
1664554128.907,-37.598,-56.641,-53.711,-70.312,0
1664554128.909,-78.613,-62.012,-52.246,-118.652,0
1664554128.913,-54.199,-66.895,-42.480,-77.148,0
1664554128.917,-20.996,-67.383,-44.434,-25.391,0
1664554128.921,-34.180,-67.383,-56.641,-49.316,0
1664554128.925,-74.219,-66.895,-48.828,-102.051,0
1664554128.929,-65.430,-73.242,-34.180,-74.219,0
1664554128.933,-27.832,-80.078,-37.109,-12.207,0
1664554128.936,-37.109,-75.684,-49.316,-32.227,0
1664554128.940,-72.754,-70.312,-53.711,-92.773,0
1664554128.944,-89.355,-80.566,-53.223,-99.609,0
1664554128.948,-49.316,-73.730,-55.664,-42.969,0
1664554128.952,-40.039,-58.594,-63.965,-43.945,0
1664554128.954,-53.711,-58.105,-62.500,-85.449,0
1664554128.958,-65.430,-59.570,-56.641,-108.887,0
1664554128.962,-46.387,-67.871,-45.898,-57.129,0
1664554128.966,-42.480,-64.453,-49.316,-31.738,0
1664554128.970,-48.340,-64.941,-51.758,-52.246,0
1664554128.974,-74.707,-78.613,-34.180,-86.426,0
1664554128.978,-81.543,-90.820,-45.410,-83.984,0
1664554128.981,-54.199,-85.938,-52.246,-56.152,0
1664554128.985,-41.504,-81.055,-38.574,-52.734,0
1664554128.989,-72.266,-94.727,-29.297,-90.820,0
1664554128.993,-85.938,-91.797,-49.805,-107.910,0
1664554128.997,-53.223,-76.660,-60.059,-65.430,0
1664554129.014,-34.180,-75.195,-42.480,-47.852,0
1664554129.018,-62.500,-75.195,-40.039,-96.191,0
1664554129.022,-98.633,-73.242,-50.293,-126.953,0
1664554129.026,-56.641,-69.824,-54.688,-74.707,0
1664554129.030,-18.555,-69.824,-38.086,-31.250,0
1664554129.034,-40.527,-75.684,-33.203,-53.223,0
1664554129.038,-89.355,-77.148,-47.363,-119.629,0
1664554129.041,-58.105,-75.195,-51.270,-87.891,0
1664554129.045,-22.949,-80.078,-39.551,-32.227,0
1664554129.049,-34.668,-81.543,-41.016,-47.852,0
1664554129.053,-79.590,-68.848,-52.734,-115.723,0
1664554129.057,-66.895,-66.895,-46.875,-91.309,0
1664554129.059,-33.691,-72.266,-46.875,-34.668,0
1664554129.063,-38.086,-68.359,-46.387,-49.805,0
1664554129.067,-82.031,-64.941,-51.270,-111.328,0
1664554129.071,-83.008,-63.477,-46.875,-114.258,0
1664554129.075,-45.898,-65.430,-42.969,-57.129,0
1664554129.079,-37.109,-80.078,-43.457,-42.969,0
1664554129.083,-61.035,-79.590,-49.805,-94.238,0
1664554129.086,-89.355,-65.430,-47.852,-130.371,0
1664554129.090,-27.344,-72.754,-27.832,-35.156,0
1664554129.094,-27.832,-77.148,-45.898,-14.648,0
1664554129.098,-68.359,-65.918,-64.941,-81.055,0
1664554129.102,-84.961,-68.359,-57.129,-112.305,0
1664554129.104,-59.570,-69.824,-55.176,-69.824,0
1664554129.108,-35.156,-63.477,-56.641,-38.086,0
1664554129.112,-40.527,-56.641,-60.059,-66.895,0
1664554129.116,-66.406,-61.035,-54.199,-104.980,0
1664554129.120,-47.852,-65.430,-45.410,-79.102,0
1664554129.124,-9.277,-60.547,-43.457,-29.297,0
1664554129.128,-9.766,-59.570,-48.340,-41.016,0
1664554129.131,-34.180,-69.336,-39.062,-81.055,0
1664554129.135,-57.129,-64.941,-48.340,-98.145,0
1664554129.139,-36.133,-53.711,-73.730,-68.359,0
1664554129.143,-18.555,-49.805,-68.848,-47.363,0
1664554129.147,-20.996,-49.316,-44.922,-58.105,0
1664554129.149,-56.152,-56.641,-48.828,-97.656,0
1664554129.153,-47.363,-46.387,-70.312,-76.172,0
1664554129.157,-13.672,-47.363,-56.641,-33.691,0
1664554129.161,-26.367,-61.523,-51.270,-57.617,0
1664554129.165,-67.871,-59.570,-55.664,-104.004,0
1664554129.169,-44.922,-60.059,-51.758,-73.730,0
1664554129.173,-22.461,-71.289,-54.688,-39.551,0
1664554129.176,-16.602,-70.801,-38.574,-28.809,0
1664554129.180,-62.012,-60.547,-46.387,-90.332,0
1664554129.184,-83.008,-53.223,-70.801,-118.164,0
1664554129.188,-21.973,-55.664,-49.805,-34.180,0
1664554129.192,-14.160,-68.359,-45.898,-33.203,0
1664554129.195,-59.570,-66.895,-53.223,-97.656,0
1664554129.199,-84.473,-52.246,-55.176,-115.234,0
1664554129.203,-42.480,-55.664,-51.758,-48.340,0
1664554129.207,-29.297,-57.617,-47.852,-24.902,0
1664554129.211,-65.918,-59.082,-48.828,-69.824,0
1664554129.215,-99.609,-72.754,-48.340,-103.516,0
1664554129.219,-68.359,-72.266,-46.875,-58.594,0
1664554129.222,-41.992,-76.172,-45.410,-22.461,0
1664554129.226,-70.801,-66.406,-69.824,-73.242,0
1664554129.230,-108.398,-56.641,-70.801,-130.859,0
1664554129.234,-80.566,-60.547,-49.316,-82.031,0
1664554129.238,-41.504,-53.223,-48.828,-33.691,0
1664554129.240,-44.434,-50.781,-60.059,-59.570,0
1664554129.244,-72.754,-57.129,-56.641,-105.469,0
1664554129.248,-82.031,-62.012,-50.293,-101.562,0
1664554129.252,-59.570,-60.059,-60.547,-58.594,0
1664554129.256,-45.410,-53.711,-60.547,-49.805,0
1664554129.260,-69.336,-61.523,-46.387,-88.379,0
1664554129.264,-88.379,-81.055,-31.250,-94.238,0
1664554129.267,-51.758,-78.125,-40.039,-41.992,0
1664554129.271,-50.781,-61.523,-66.406,-47.852,0
1664554129.275,-72.266,-58.594,-57.617,-79.102,0
1664554129.279,-102.539,-54.688,-46.387,-119.141,0
1664554129.283,-70.312,-52.246,-54.199,-84.961,0
1664554129.300,-37.109,-52.734,-53.223,-36.133,0
1664554129.304,-42.480,-49.805,-41.992,-48.340,0
1664554129.308,-82.031,-51.270,-39.551,-107.422,0
1664554129.312,-83.984,-53.711,-50.781,-100.586,0
1664554129.316,-45.410,-52.734,-48.828,-46.875,0
1664554129.320,-32.715,-60.059,-41.504,-35.156,0
1664554129.324,-62.988,-67.383,-36.621,-76.660,0
1664554129.327,-98.145,-60.059,-57.129,-111.816,0
1664554129.331,-69.336,-51.758,-70.312,-67.871,0
1664554129.335,-35.645,-60.059,-52.246,-27.344,0
1664554129.339,-59.082,-57.617,-46.387,-72.266,0
1664554129.343,-105.469,-49.316,-60.059,-138.184,0
1664554129.344,-66.406,-55.664,-65.430,-86.914,0
1664554129.348,-34.668,-58.105,-58.105,-33.203,0
1664554129.352,-54.688,-57.129,-55.176,-67.871,0
1664554129.356,-95.703,-50.293,-58.105,-131.348,0
1664554129.360,-71.289,-47.363,-50.781,-76.660,0
1664554129.364,-36.133,-54.688,-47.363,-20.020,0
1664554129.368,-48.828,-55.664,-50.781,-56.641,0
1664554129.371,-91.309,-52.734,-57.129,-122.070,0
1664554129.375,-76.172,-52.246,-56.641,-98.145,0
1664554129.379,-29.297,-61.035,-40.527,-18.555,0
1664554129.383,-46.387,-66.895,-58.105,-44.922,0
1664554129.387,-80.566,-63.477,-64.941,-116.211,0
1664554129.389,-70.312,-69.336,-45.898,-91.309,0
1664554129.393,-32.715,-60.059,-54.688,-41.016,0
1664554129.397,-49.805,-44.922,-78.125,-68.359,0
1664554129.401,-79.102,-39.062,-82.031,-114.258,0
1664554129.405,-90.332,-41.016,-64.941,-116.211,0
1664554129.409,-56.152,-43.945,-66.895,-59.082,0
1664554129.413,-36.621,-40.527,-79.102,-46.387,0
1664554129.416,-53.711,-34.180,-81.055,-80.078,0
1664554129.420,-80.566,-39.551,-66.895,-117.188,0
1664554129.424,-68.359,-53.711,-66.895,-87.402,0
1664554129.428,-63.477,-43.945,-99.609,-76.660,0
1664554129.432,-59.570,-36.621,-90.332,-82.031,0
1664554129.434,-84.961,-41.504,-70.312,-113.770,0
1664554129.438,-89.355,-40.039,-70.801,-107.422,0
1664554129.442,-39.551,-33.691,-68.359,-43.945,0
1664554129.446,-33.203,-35.156,-65.430,-46.387,0
1664554129.450,-72.754,-34.668,-57.617,-98.145,0
1664554129.454,-93.750,-32.715,-53.223,-113.281,0
1664554129.458,-59.570,-44.434,-59.570,-59.082,0
1664554129.461,-42.969,-41.504,-61.523,-53.223,0
1664554129.465,-50.293,-47.852,-42.480,-62.012,0
1664554129.469,-94.238,-57.617,-52.246,-99.609,0
1664554129.473,-86.426,-39.062,-76.660,-89.844,0
1664554129.477,-44.434,-42.480,-62.988,-42.969,0
1664554129.480,-55.176,-50.781,-60.547,-77.148,0
1664554129.484,-95.215,-43.457,-65.918,-134.766,0
1664554129.488,-72.266,-40.039,-59.082,-105.957,0
1664554129.492,-26.855,-40.527,-55.176,-47.363,0
1664554129.496,-20.996,-49.316,-58.105,-42.969,0
1664554129.500,-57.129,-52.246,-58.594,-99.121,0
1664554129.504,-69.824,-51.758,-61.035,-107.422,0
1664554129.507,-31.738,-56.152,-57.617,-41.504,0
1664554129.511,-29.297,-58.105,-58.594,-33.203,0
1664554129.515,-83.496,-52.734,-80.566,-109.375,0
1664554129.519,-107.910,-45.898,-71.289,-140.625,0
1664554129.523,-56.152,-46.387,-56.152,-67.383,0
1664554129.525,-37.109,-47.363,-65.430,-37.598,0
1664554129.529,-54.199,-45.898,-66.406,-80.078,0
1664554129.533,-86.914,-44.922,-59.570,-121.582,0
1664554129.537,-71.289,-43.945,-62.500,-82.031,0
1664554129.541,-49.316,-41.992,-62.988,-52.734,0
1664554129.545,-50.781,-45.410,-51.758,-70.312,0
1664554129.549,-90.332,-52.246,-52.734,-126.465,0
1664554129.552,-76.660,-60.059,-45.410,-95.215,0
1664554129.556,-47.852,-58.105,-61.035,-48.340,0
1664554129.560,-55.664,-42.969,-73.242,-78.613,0
1664554129.564,-78.125,-43.457,-53.223,-116.211,0
1664554129.568,-97.168,-55.176,-58.594,-122.559,0
1664554129.570,-70.801,-51.758,-70.312,-72.754,0
1664554129.574,-58.105,-47.363,-66.406,-61.035,0
1664554129.578,-76.660,-53.223,-53.223,-86.914,0
1664554129.582,-111.328,-59.082,-55.176,-119.629,0
1664554129.586,-83.984,-54.199,-61.523,-86.914,0
1664554129.590,-51.758,-61.523,-58.105,-51.270,0
1664554129.594,-55.176,-68.848,-47.363,-64.453,0
1664554129.597,-95.215,-59.082,-41.992,-109.375,0
1664554129.601,-91.309,-42.969,-66.406,-107.910,0
1664554129.605,-48.340,-46.387,-62.500,-59.570,0
1664554129.609,-54.688,-58.105,-56.641,-61.035,0
1664554129.613,-106.934,-59.570,-61.523,-123.535,0
1664554129.615,-108.887,-55.176,-61.523,-116.211,0
1664554129.619,-58.105,-52.734,-55.176,-52.246,0
1664554129.623,-40.039,-61.035,-50.781,-47.363,0
1664554129.627,-82.031,-64.453,-61.035,-104.492,0
1664554129.631,-94.727,-55.664,-58.105,-113.281,0
1664554129.635,-47.852,-53.711,-52.246,-49.805,0
1664554129.639,-32.227,-64.941,-36.133,-15.137,0
1664554129.642,-69.824,-62.012,-46.875,-63.477,0
1664554129.646,-119.629,-43.945,-74.707,-140.625,0
1664554129.650,-74.219,-39.062,-58.105,-78.613,0
1664554129.654,-45.410,-47.852,-47.363,-31.250,0
1664554129.658,-57.617,-52.734,-45.410,-60.059,0
1664554129.659,-94.727,-46.387,-50.781,-116.699,0
1664554129.663,-79.590,-47.363,-52.246,-89.355,0
1664554129.667,-46.387,-55.664,-53.223,-33.203,0
1664554129.671,-54.199,-53.711,-64.453,-62.012,0
1664554129.675,-86.914,-52.246,-61.035,-110.840,0
1664554129.679,-74.219,-56.152,-42.969,-78.613,0
1664554129.683,-36.621,-64.453,-31.738,-13.184,0
1664554129.686,-66.406,-63.965,-61.035,-50.293,0
1664554129.690,-100.586,-55.664,-71.777,-120.605,0
1664554129.694,-99.609,-53.711,-53.223,-120.605,0
1664554129.698,-78.613,-59.570,-51.758,-62.012,0
1664554129.702,-63.965,-54.199,-62.988,-41.504,0
1664554129.704,-59.570,-44.922,-63.477,-65.918,0
1664554129.708,-94.727,-56.152,-42.969,-100.586,0
1664554129.712,-90.332,-62.988,-39.551,-76.660,0
1664554129.716,-70.801,-62.500,-46.875,-56.152,0
1664554129.720,-64.453,-56.641,-38.574,-69.824,0
1664554129.724,-86.914,-68.359,-21.484,-90.332,0
1664554129.728,-97.656,-74.707,-42.969,-88.379,0
1664554129.731,-77.637,-61.035,-65.918,-72.754,0
1664554129.735,-59.570,-58.105,-51.270,-65.918,0
1664554129.739,-96.191,-65.918,-42.480,-104.492,0
1664554129.743,-110.352,-69.824,-49.805,-117.188,0
1664554129.747,-64.941,-60.059,-55.664,-70.801,0
1664554129.765,-52.734,-62.500,-51.758,-54.688,0
1664554129.769,-83.984,-69.824,-43.945,-91.309,0
1664554129.773,-116.211,-60.547,-53.223,-128.418,0
1664554129.777,-69.824,-50.781,-61.035,-70.312,0
1664554129.781,-24.902,-62.988,-48.828,-24.414,0
1664554129.785,-36.133,-70.801,-35.645,-52.734,0
1664554129.789,-84.473,-74.219,-44.434,-112.305,0
1664554129.792,-75.684,-73.242,-65.918,-89.844,0
1664554129.796,-34.180,-63.965,-54.199,-37.109,0
1664554129.800,-42.480,-68.359,-46.875,-51.758,0
1664554129.804,-108.887,-56.152,-71.289,-139.648,0
1664554129.808,-96.191,-43.457,-63.477,-122.559,0
1664554129.809,-48.828,-52.734,-52.246,-46.387,0
1664554129.813,-53.223,-60.547,-59.570,-49.316,0
1664554129.817,-89.355,-57.129,-64.453,-114.258,0
1664554129.821,-84.961,-52.734,-57.617,-123.535,0
1664554129.825,-36.621,-54.199,-51.270,-53.223,0
1664554129.829,-21.484,-58.105,-41.504,-32.227,0
1664554129.833,-44.922,-58.105,-41.504,-79.102,0
1664554129.836,-79.590,-54.688,-51.758,-122.070,0
1664554129.840,-40.527,-62.012,-35.645,-46.875,0
1664554129.844,-40.527,-62.012,-42.480,-25.391,0
1664554129.848,-75.684,-44.922,-76.172,-89.355,0
1664554129.852,-99.121,-51.270,-56.152,-113.770,0
1664554129.855,-83.496,-58.594,-41.016,-78.125,0
1664554129.859,-61.523,-60.059,-56.152,-49.316,0
1664554129.863,-62.012,-59.082,-55.664,-65.918,0
1664554129.867,-77.148,-59.082,-37.109,-97.656,0
1664554129.871,-75.684,-66.406,-28.809,-81.055,0
1664554129.875,-52.734,-69.336,-35.156,-28.809,0
1664554129.879,-47.363,-69.824,-40.039,-29.297,0
1664554129.882,-72.754,-80.566,-30.273,-77.148,0
1664554129.886,-97.656,-96.680,-32.715,-86.914,0
1664554129.890,-83.984,-76.660,-66.895,-67.871,0
1664554129.894,-68.359,-56.641,-70.312,-68.848,0
1664554129.898,-74.707,-61.523,-50.293,-85.938,0
1664554129.900,-110.840,-64.453,-44.922,-121.094,0
1664554129.904,-89.844,-62.012,-53.223,-89.844,0
1664554129.908,-51.270,-58.594,-48.340,-48.828,0
1664554129.912,-58.105,-66.406,-41.016,-66.406,0
1664554129.916,-103.027,-67.871,-43.457,-120.117,0
1664554129.920,-78.125,-64.941,-42.480,-89.355,0
1664554129.924,-49.316,-68.359,-52.734,-46.875,0
1664554129.927,-43.457,-75.195,-39.551,-39.551,0
1664554129.931,-91.797,-75.684,-46.387,-100.586,0
1664554129.935,-118.652,-61.523,-70.312,-132.812,0
1664554129.939,-61.035,-57.617,-50.781,-52.734,0
1664554129.943,-59.082,-63.965,-48.340,-41.504,0
1664554129.945,-97.168,-67.871,-56.641,-105.469,0
1664554129.949,-106.934,-63.965,-52.734,-119.141,0
1664554129.953,-56.641,-66.895,-48.340,-47.852,0
1664554129.957,-34.180,-65.918,-43.945,-26.367,0
1664554129.961,-55.176,-55.664,-42.969,-64.941,0
1664554129.965,-92.285,-58.594,-44.434,-105.957,0
1664554129.969,-65.918,-65.430,-42.480,-62.500,0
1664554129.972,-41.992,-67.871,-43.457,-25.391,0
1664554129.976,-74.707,-59.570,-67.383,-81.055,0
1664554129.980,-103.027,-51.270,-63.477,-136.719,0
1664554129.984,-72.266,-60.547,-42.480,-86.914,0
1664554129.988,-41.992,-58.594,-50.781,-38.574,0
1664554129.990,-47.363,-46.387,-59.570,-58.594,0
1664554129.994,-72.754,-57.617,-45.898,-92.773,0
1664554129.998,-81.543,-62.988,-49.805,-103.027,0
1664554130.002,-58.105,-55.176,-62.012,-69.336,0
1664554130.006,-45.410,-53.223,-61.523,-54.688,0
1664554130.010,-61.035,-58.594,-56.641,-94.238,0
1664554130.014,-78.613,-65.430,-45.410,-100.098,0
1664554130.017,-59.082,-72.266,-47.363,-53.711,0
1664554130.021,-46.875,-68.359,-66.406,-60.059,0
1664554130.025,-46.875,-56.641,-62.988,-77.148,0
1664554130.029,-99.121,-44.922,-60.059,-126.953,0
1664554130.033,-83.984,-38.086,-67.383,-101.562,0
1664554130.049,-43.945,-36.133,-73.730,-55.664,0
1664554130.053,-40.527,-28.809,-67.383,-68.848,0
1664554130.057,-67.383,-32.715,-68.848,-110.352,0
1664554130.061,-58.594,-30.273,-83.984,-93.750,0
1664554130.065,-24.414,-20.020,-95.215,-51.758,0
1664554130.069,-10.254,-21.484,-85.938,-49.805,0
1664554130.073,-43.457,-29.785,-71.289,-88.379,0
1664554130.076,-92.285,-30.273,-96.680,-128.418,0
1664554130.080,-54.199,-23.926,-105.469,-81.055,0
1664554130.084,-17.090,-20.996,-77.148,-35.645,0
1664554130.088,-40.039,-26.367,-70.801,-74.219,0
1664554130.092,-83.984,-32.715,-84.473,-124.512,0
1664554130.095,-53.711,-28.320,-86.426,-69.336,0
1664554130.099,-13.184,-29.297,-78.125,-21.973,0
1664554130.103,-33.203,-34.180,-85.938,-69.824,0
1664554130.107,-84.961,-32.227,-91.797,-129.883,0
1664554130.111,-58.594,-29.785,-77.148,-84.961,0
1664554130.115,-17.090,-38.086,-61.035,-14.160,0
1664554130.119,-35.645,-41.016,-71.777,-36.133,0
1664554130.122,-90.820,-33.691,-84.961,-115.723,0
1664554130.126,-88.867,-30.762,-80.566,-103.027,0
1664554130.130,-37.598,-39.062,-64.941,-28.809,0
1664554130.134,-41.992,-44.434,-66.895,-41.016,0
1664554130.138,-78.125,-38.574,-75.195,-104.004,0
1664554130.139,-82.520,-37.598,-67.871,-113.281,0
1664554130.143,-44.922,-36.621,-64.453,-49.316,0
1664554130.147,-37.598,-40.039,-71.777,-35.645,0
1664554130.151,-54.199,-40.527,-75.195,-74.219,0
1664554130.155,-82.031,-40.527,-61.523,-101.562,0
1664554130.159,-53.223,-47.363,-49.316,-44.922,0
1664554130.163,-35.645,-41.504,-57.129,-16.602,0
1664554130.166,-50.781,-30.762,-60.547,-58.594,0
1664554130.170,-73.242,-36.133,-51.270,-89.844,0
1664554130.174,-67.871,-52.246,-54.688,-56.152,0
1664554130.178,-62.500,-41.992,-73.242,-43.945,0
1664554130.182,-49.805,-30.762,-58.594,-54.688,0
1664554130.184,-72.754,-39.062,-40.527,-88.867,0
1664554130.188,-91.797,-41.504,-55.664,-100.098,0
1664554130.192,-53.223,-34.668,-65.918,-57.129,0
1664554130.196,-35.645,-34.668,-56.641,-44.434,0
1664554130.200,-60.547,-44.922,-49.316,-76.172,0
1664554130.204,-90.820,-56.641,-47.852,-100.098,0
1664554130.208,-67.383,-47.363,-57.617,-62.012,0
1664554130.211,-51.270,-36.621,-64.941,-45.898,0
1664554130.215,-50.293,-52.246,-37.109,-56.152,0
1664554130.219,-88.379,-55.176,-41.016,-107.422,0
1664554130.223,-83.984,-42.969,-65.918,-96.191,0
1664554130.227,-41.992,-40.527,-52.246,-40.039,0
1664554130.229,-43.945,-42.969,-50.293,-55.664,0
1664554130.233,-91.797,-43.945,-60.547,-121.582,0
1664554130.237,-84.961,-40.527,-57.129,-99.609,0
1664554130.241,-41.016,-44.922,-52.246,-36.621,0
1664554130.245,-43.945,-52.734,-57.617,-47.852,0
1664554130.249,-81.543,-57.617,-58.105,-91.797,0
1664554130.253,-93.262,-63.965,-60.059,-98.145,0
1664554130.256,-49.805,-68.359,-51.758,-39.062,0
1664554130.260,-43.457,-66.895,-50.781,-20.996,0
1664554130.264,-96.680,-47.852,-73.242,-97.168,0
1664554130.268,-116.699,-40.039,-74.707,-131.836,0
1664554130.272,-65.430,-50.293,-64.941,-65.430,0
1664554130.275,-42.969,-54.199,-55.664,-32.227,0
1664554130.279,-68.359,-46.387,-61.035,-77.637,0
1664554130.283,-108.398,-38.086,-62.012,-122.070,0
1664554130.287,-87.402,-44.922,-54.688,-75.684,0
1664554130.291,-59.082,-49.805,-53.223,-36.621,0
1664554130.295,-58.594,-44.922,-50.293,-46.875,0
1664554130.299,-97.656,-40.527,-60.547,-103.027,0
1664554130.302,-79.590,-48.340,-51.270,-71.289,0
1664554130.306,-51.758,-44.434,-58.105,-28.320,0
1664554130.310,-67.871,-31.250,-77.637,-69.336,0
1664554130.314,-87.402,-41.504,-60.547,-109.375,0
1664554130.318,-103.027,-48.340,-60.059,-117.676,0
1664554130.320,-65.430,-44.922,-69.824,-72.754,0
1664554130.324,-46.387,-43.945,-67.383,-60.547,0
1664554130.328,-62.500,-46.875,-50.293,-77.148,0
1664554130.332,-90.332,-49.316,-47.363,-107.422,0
1664554130.336,-59.082,-46.875,-56.641,-72.754,0
1664554130.340,-33.203,-44.922,-54.688,-33.203,0
1664554130.344,-38.574,-51.270,-46.387,-50.293,0
1664554130.347,-73.242,-59.570,-45.410,-88.867,0
1664554130.351,-82.031,-47.852,-70.312,-90.332,0
1664554130.355,-43.945,-39.551,-73.242,-52.734,0
1664554130.359,-41.016,-47.363,-64.941,-49.316,0
1664554130.363,-87.402,-51.270,-62.012,-95.703,0
1664554130.365,-90.332,-46.387,-66.895,-102.051,0
1664554130.369,-46.387,-41.504,-65.918,-46.875,0
1664554130.373,-39.551,-44.434,-56.641,-32.715,0
1664554130.377,-79.102,-44.434,-52.734,-89.844,0
1664554130.381,-95.215,-43.457,-53.223,-111.328,0
1664554130.385,-54.199,-51.758,-54.199,-57.129,0
1664554130.389,-29.297,-62.988,-39.551,-16.113,0
1664554130.392,-66.406,-66.406,-53.711,-72.754,0
1664554130.396,-111.328,-51.270,-74.707,-154.297,0
1664554130.400,-58.105,-41.016,-59.570,-86.426,0
1664554130.404,-35.156,-42.969,-53.711,-40.039,0
1664554130.408,-58.105,-39.551,-57.617,-69.336,0
1664554130.409,-93.262,-40.527,-65.430,-121.582,0
1664554130.413,-76.172,-50.293,-55.176,-87.402,0
1664554130.417,-43.457,-51.758,-48.828,-32.715,0
1664554130.421,-49.805,-46.387,-61.035,-64.941,0
1664554130.425,-83.496,-42.969,-56.152,-117.676,0
1664554130.429,-77.148,-50.293,-43.457,-96.680,0
1664554130.433,-36.133,-58.594,-45.410,-33.203,0
1664554130.436,-49.316,-54.688,-70.801,-53.223,0
1664554130.440,-85.938,-48.340,-80.566,-111.816,0
1664554130.444,-100.586,-48.828,-68.848,-124.512,0
1664554130.448,-65.918,-51.758,-67.871,-69.824,0
1664554130.452,-48.340,-48.340,-77.148,-54.199,0
1664554130.454,-61.523,-45.898,-71.777,-87.891,0
1664554130.458,-96.680,-55.176,-57.129,-130.371,0
1664554130.462,-70.312,-59.082,-62.012,-95.703,0
1664554130.466,-49.805,-51.758,-70.312,-60.547,0
1664554130.470,-65.918,-56.641,-62.988,-81.543,0
1664554130.474,-96.680,-76.660,-52.734,-115.723,0
1664554130.478,-101.074,-83.984,-63.477,-110.352,0
1664554130.481,-77.148,-68.359,-73.730,-82.031,0
1664554130.485,-73.242,-63.477,-65.430,-74.219,0
1664554130.489,-98.633,-65.430,-51.758,-103.516,0
1664554130.493,-108.398,-64.453,-52.734,-112.305,0
1664554130.497,-75.195,-56.152,-58.105,-66.895,0
1664554130.514,-57.129,-57.129,-49.805,-47.852,0
1664554130.518,-72.266,-62.500,-48.828,-79.590,0
1664554130.522,-103.516,-53.223,-60.059,-122.559,0
1664554130.526,-73.730,-47.363,-64.453,-80.566,0
1664554130.530,-38.086,-54.199,-52.734,-37.109,0
1664554130.534,-49.316,-63.965,-41.016,-62.500,0
1664554130.538,-99.121,-69.336,-56.152,-125.000,0
1664554130.541,-76.172,-67.383,-66.406,-92.773,0
1664554130.545,-33.691,-65.918,-57.617,-40.039,0
1664554130.549,-41.504,-67.871,-54.688,-49.805,0
1664554130.553,-102.539,-53.711,-71.777,-120.605,0
1664554130.557,-92.773,-55.664,-61.523,-101.074,0
1664554130.560,-43.945,-62.012,-46.875,-35.156,0
1664554130.564,-49.805,-53.223,-56.152,-47.852,0
1664554130.568,-77.637,-51.758,-56.152,-96.191,0
1664554130.572,-79.102,-55.176,-45.410,-102.539,0
1664554130.576,-38.086,-53.223,-40.527,-36.621,0
1664554130.580,-34.180,-54.199,-44.434,-17.090,0
1664554130.584,-65.918,-53.711,-58.594,-75.684,0
1664554130.587,-97.168,-46.387,-69.336,-120.605,0
1664554130.591,-54.199,-56.152,-42.480,-37.109,0
1664554130.595,-47.852,-59.082,-46.875,-19.043,0
1664554130.599,-82.031,-46.387,-79.590,-93.262,0
1664554130.603,-100.098,-48.340,-65.918,-120.605,0
1664554130.604,-83.008,-46.387,-59.082,-80.566,0
1664554130.608,-53.711,-41.016,-61.035,-44.434,0
1664554130.612,-47.852,-41.992,-52.734,-51.758,0
1664554130.616,-81.055,-49.805,-58.105,-102.539,0
1664554130.620,-81.543,-58.594,-57.129,-97.656,0
1664554130.624,-49.805,-60.547,-59.082,-42.480,0
1664554130.628,-45.410,-60.547,-62.500,-42.480,0
1664554130.631,-74.219,-62.500,-52.246,-85.449,0
1664554130.635,-103.516,-65.430,-45.898,-97.168,0
1664554130.639,-91.309,-57.617,-74.219,-75.195,0
1664554130.643,-70.312,-54.199,-71.777,-63.477,0
1664554130.647,-76.660,-63.477,-52.246,-77.148,0
1664554130.650,-125.488,-64.453,-64.941,-128.418,0
1664554130.654,-105.957,-62.500,-69.336,-99.609,0
1664554130.658,-66.895,-60.059,-63.477,-55.176,0
1664554130.662,-74.707,-60.547,-56.152,-68.359,0
1664554130.666,-112.793,-63.965,-45.898,-114.258,0
1664554130.670,-96.680,-62.012,-41.992,-92.285,0
1664554130.674,-67.383,-59.082,-54.688,-55.176,0
1664554130.677,-57.129,-65.430,-44.434,-45.898,0
1664554130.681,-101.074,-62.988,-47.852,-100.586,0
1664554130.685,-130.371,-53.711,-74.707,-144.531,0
1664554130.689,-79.102,-55.664,-57.617,-78.613,0
1664554130.693,-65.918,-55.664,-49.805,-51.270,0
1664554130.695,-97.168,-51.758,-63.965,-104.980,0
1664554130.699,-121.094,-55.664,-69.336,-145.996,0
1664554130.703,-63.965,-47.363,-48.340,-73.242,0
1664554130.707,-39.551,-39.551,-37.109,-43.945,0
1664554130.711,-82.031,-45.410,-57.617,-103.027,0
1664554130.715,-99.609,-38.086,-42.480,-123.047,0
1664554130.719,-72.266,-44.434,-30.273,-78.125,0
1664554130.722,-76.660,-64.941,-46.387,-55.176,0
1664554130.726,-108.887,-48.828,-64.453,-107.910,0
1664554130.730,-150.879,-27.832,-59.570,-185.547,0
1664554130.734,-132.812,-30.273,-35.645,-148.438,0
1664554130.738,-111.816,-33.691,-46.387,-111.816,0
1664554130.740,-135.254,-28.809,-67.383,-145.996,0
1664554130.744,-171.387,-22.461,-57.129,-193.848,0
1664554130.748,-179.199,-20.996,-30.762,-203.125,0
1664554130.752,-162.598,-33.203,-39.551,-172.852,0
1664554130.756,-178.223,-29.297,-50.781,-185.547,0
1664554130.760,-220.215,-19.531,-36.621,-240.723,0
1664554130.764,-250.977,-39.062,-27.344,-266.113,0
1664554130.767,-239.258,-41.016,-46.387,-242.188,0
1664554130.771,-242.188,-30.762,-63.965,-252.930,0
1664554130.775,-249.023,-41.992,-45.410,-265.625,0
1664554130.779,-302.246,-39.551,-51.758,-319.336,0
1664554130.783,-284.668,-26.855,-52.734,-290.527,0
1664554130.784,-233.887,-23.926,-46.875,-237.305,0
1664554130.788,-217.285,-25.879,-43.457,-251.953,0
1664554130.792,-234.375,-27.344,-37.109,-291.016,0
1664554130.796,-229.492,-19.043,-44.922,-269.043,0
1664554130.800,-176.270,-11.719,-43.457,-195.312,0
1664554130.804,-136.230,-27.344,-28.809,-161.133,0
1664554130.808,-157.227,-45.410,-20.996,-188.477,0
1664554130.811,-195.801,-43.945,-43.945,-221.680,0
1664554130.815,-153.809,-33.691,-57.129,-164.062,0
1664554130.819,-110.840,-42.969,-40.527,-105.957,0
1664554130.823,-127.930,-54.688,-39.062,-128.906,0
1664554130.827,-159.180,-44.922,-46.875,-161.133,0
1664554130.829,-114.258,-40.039,-50.781,-102.051,0
1664554130.833,-71.289,-43.457,-48.340,-47.363,0
1664554130.837,-79.102,-50.781,-53.711,-71.289,0
1664554130.841,-111.328,-52.734,-56.152,-117.188,0
1664554130.845,-82.520,-52.734,-50.293,-71.289,0
1664554130.849,-32.227,-64.453,-41.992,-2.441,0
1664554130.853,-34.180,-71.777,-53.711,-13.672,0
1664554130.856,-74.707,-65.430,-68.359,-71.289,0
1664554130.860,-59.570,-62.500,-56.641,-46.875,0
1664554130.864,-3.906,-69.824,-49.805,34.180,0
1664554130.868,-1.465,-68.848,-61.523,32.227,0
1664554130.872,-26.367,-61.523,-65.430,-29.297,0
1664554130.890,-19.531,-63.477,-54.199,-32.227,0
1664554130.894,21.484,-71.289,-51.758,35.156,0
1664554130.898,20.996,-73.242,-58.594,47.852,0
1664554130.902,3.418,-60.547,-55.664,7.812,0
1664554130.906,-23.926,-64.453,-48.340,-23.926,0
1664554130.910,9.766,-73.242,-49.805,24.414,0
1664554130.914,37.109,-67.383,-60.059,55.664,0
1664554130.917,19.043,-67.871,-60.547,20.508,0
1664554130.921,-7.324,-69.824,-50.293,-20.508,0
1664554130.925,13.184,-66.895,-49.805,11.719,0
1664554130.929,27.344,-65.430,-62.988,33.691,0
1664554130.933,26.855,-60.547,-58.105,23.438,0
1664554130.935,-1.465,-60.059,-45.898,-11.719,0
1664554130.939,-14.648,-65.430,-48.340,-20.020,0
1664554130.943,17.090,-65.430,-63.477,17.090,0
1664554130.947,30.273,-71.289,-62.012,34.180,0
1664554130.951,8.301,-73.730,-55.176,1.953,0
1664554130.955,-16.602,-71.777,-48.340,-25.879,0
1664554130.959,7.812,-64.453,-49.805,25.391,0
1664554130.962,20.508,-56.152,-53.223,45.410,0
1664554130.966,22.461,-65.430,-29.297,44.434,0
1664554130.970,-29.785,-68.848,-38.086,-15.137,0
1664554130.974,-18.066,-49.316,-62.012,-22.949,0
1664554130.978,26.855,-51.758,-54.688,34.180,0
1664554130.980,10.254,-60.059,-51.758,19.043,0
1664554130.984,-29.785,-53.223,-53.223,-41.016,0
1664554130.988,-13.672,-49.316,-47.852,-23.926,0
1664554130.992,31.738,-50.781,-44.922,40.527,0
1664554130.996,29.297,-56.152,-44.922,30.273,0
1664554131.000,-17.090,-62.988,-43.457,-33.203,0
1664554131.004,-31.738,-63.477,-51.270,-47.363,0
1664554131.007,14.648,-64.453,-41.504,19.043,0
1664554131.011,33.203,-68.848,-35.156,47.363,0
1664554131.015,-13.184,-62.012,-61.035,-37.109,0
1664554131.019,-47.363,-54.199,-61.523,-85.449,0
1664554131.023,0.977,-54.688,-46.387,-10.254,0
1664554131.025,23.926,-52.246,-49.805,17.090,0
1664554131.029,-0.977,-45.898,-62.988,-34.180,0
1664554131.033,-28.809,-47.852,-50.781,-76.172,0
1664554131.037,-1.465,-54.199,-38.086,-41.992,0
1664554131.041,19.043,-52.246,-45.410,-6.348,0
1664554131.045,9.277,-49.805,-32.227,-8.789,0
1664554131.049,-33.203,-49.805,-31.738,-64.941,0
1664554131.052,-17.578,-61.035,-31.250,-37.598,0
1664554131.056,15.625,-63.965,-34.668,15.625,0
1664554131.060,-10.742,-47.852,-64.453,-24.902,0
1664554131.064,-29.785,-47.852,-55.176,-67.383,0
1664554131.068,-47.363,-50.781,-49.316,-83.984,0
1664554131.070,-20.996,-46.387,-59.082,-35.156,0
1664554131.074,-10.254,-47.363,-59.570,-15.137,0
1664554131.078,-23.438,-51.270,-52.734,-44.434,0
1664554131.082,-57.129,-57.129,-52.246,-80.566,0
1664554131.086,-47.852,-57.617,-67.871,-54.688,0
1664554131.090,-20.020,-52.734,-65.430,-18.066,0
1664554131.094,-20.508,-58.105,-45.898,-26.855,0
1664554131.097,-58.105,-66.895,-38.574,-69.824,0
1664554131.101,-71.289,-62.988,-61.523,-78.125,0
1664554131.105,-35.645,-52.246,-58.105,-35.156,0
1664554131.109,-16.602,-48.340,-41.992,-20.996,0
1664554131.113,-53.223,-45.410,-55.176,-73.242,0
1664554131.129,-73.242,-42.969,-56.641,-82.031,0
1664554131.133,-40.039,-44.434,-31.250,-23.926,0
1664554131.137,-29.297,-51.758,-22.949,-6.348,0
1664554131.141,-68.848,-60.059,-37.109,-62.500,0
1664554131.145,-96.191,-58.594,-36.133,-92.285,0
1664554131.149,-58.105,-59.082,-26.855,-24.902,0
1664554131.153,-24.902,-70.312,-11.719,24.414,0
1664554131.156,-42.969,-65.918,-18.066,-16.113,0
1664554131.160,-96.680,-51.270,-47.852,-108.887,0
1664554131.164,-63.965,-60.547,-46.875,-60.059,0
1664554131.168,-36.133,-65.918,-41.992,-15.625,0
1664554131.172,-51.758,-55.664,-43.945,-51.758,0
1664554131.159,-80.566,-57.617,-40.039,-90.332,0
1664554131.163,-61.035,-64.453,-30.762,-52.246,0
1664554131.167,-31.250,-62.012,-43.457,-9.277,0
1664554131.171,-32.227,-57.129,-62.012,-42.480,0
1664554131.175,-60.547,-49.316,-51.270,-87.402,0
1664554131.179,-57.617,-51.758,-29.785,-65.918,0
1664554131.183,-20.996,-57.129,-26.855,-12.695,0
1664554131.186,-32.227,-57.129,-35.156,-24.414,0
1664554131.190,-65.430,-49.805,-46.875,-81.543,0
1664554131.194,-71.289,-50.781,-28.320,-87.402,0
1664554131.198,-36.133,-62.988,-20.996,-25.391,0
1664554131.202,-48.828,-53.223,-56.641,-35.645,0
1664554131.205,-60.059,-39.551,-55.176,-67.383,0
1664554131.209,-79.102,-43.457,-39.551,-95.215,0
1664554131.213,-64.941,-44.434,-40.527,-62.500,0
1664554131.217,-40.039,-46.875,-43.457,-20.996,0
1664554131.221,-41.016,-53.711,-39.551,-35.156,0
1664554131.225,-67.383,-62.012,-22.461,-66.895,0
1664554131.229,-75.195,-57.129,-36.133,-67.871,0
1664554131.232,-46.875,-42.969,-48.828,-44.922,0
1664554131.236,-26.855,-38.574,-39.551,-33.691,0
1664554131.240,-62.012,-48.340,-41.504,-70.801,0
1664554131.244,-87.891,-49.805,-52.734,-100.098,0
1664554131.248,-44.922,-39.551,-56.152,-49.316,0
1664554131.264,-24.414,-40.039,-39.551,-17.090,0
1664554131.268,-41.992,-41.504,-40.527,-60.547,0
1664554131.272,-83.008,-40.039,-51.270,-110.840,0
1664554131.276,-64.453,-40.527,-47.852,-65.430,0
1664554131.280,-40.527,-51.758,-41.504,-24.902,0
1664554131.284,-45.410,-53.223,-32.227,-39.551,0
1664554131.288,-91.309,-46.875,-36.621,-103.027,0
1664554131.291,-85.938,-43.945,-46.387,-87.891,0
1664554131.295,-41.504,-48.828,-42.480,-21.484,0
1664554131.299,-46.387,-50.293,-40.527,-29.297,0
1664554131.303,-89.844,-37.598,-56.152,-106.445,0
1664554131.307,-85.449,-35.645,-45.898,-96.191,0
1664554131.309,-39.551,-43.457,-32.227,-27.344,0
1664554131.313,-36.133,-46.875,-44.434,-28.320,0
1664554131.317,-76.172,-37.598,-52.246,-89.844,0
1664554131.321,-97.168,-37.109,-49.316,-120.117,0
1664554131.325,-59.570,-50.293,-49.316,-52.734,0
1664554131.329,-33.203,-51.270,-49.805,-23.926,0
1664554131.333,-52.246,-34.668,-48.828,-83.496,0
1664554131.336,-88.867,-35.156,-46.387,-129.883,0
1664554131.340,-49.316,-55.176,-31.250,-48.340,0
1664554131.344,-37.109,-55.664,-47.852,-24.902,0
1664554131.348,-62.500,-40.039,-61.523,-83.496,0
1664554131.352,-85.449,-46.387,-38.574,-106.934,0
1664554131.354,-73.730,-44.922,-43.457,-86.426,0
1664554131.358,-52.246,-40.527,-53.711,-54.688,0
1664554131.362,-45.898,-35.156,-58.105,-59.082,0
1664554131.366,-54.688,-35.645,-52.246,-88.867,0
1664554131.370,-67.383,-53.711,-36.133,-84.961,0
1664554131.374,-45.898,-62.500,-30.273,-45.410,0
1664554131.378,-38.574,-61.523,-35.645,-46.875,0
1664554131.381,-58.594,-62.500,-32.227,-75.195,0
1664554131.385,-87.891,-70.801,-32.227,-88.867,0
1664554131.389,-75.195,-68.848,-43.457,-69.824,0
1664554131.393,-50.293,-64.941,-36.621,-46.875,0
1664554131.397,-58.594,-70.801,-28.320,-63.965,0
1664554131.399,-102.051,-64.453,-29.297,-120.605,0
1664554131.403,-87.891,-55.664,-37.598,-96.680,0
1664554131.407,-55.664,-61.523,-34.180,-51.758,0
1664554131.411,-60.547,-64.453,-29.785,-65.430,0
1664554131.415,-98.145,-62.500,-37.109,-121.582,0
1664554131.419,-84.473,-61.035,-32.715,-102.539,0
1664554131.423,-55.664,-59.570,-32.227,-48.828,0
1664554131.426,-31.250,-64.941,-17.090,-19.531,0
1664554131.430,-65.918,-69.336,-17.578,-67.871,0
1664554131.434,-102.539,-57.129,-44.922,-114.746,0
1664554131.438,-45.410,-42.480,-43.945,-50.781,0
1664554131.442,-29.785,-41.992,-34.180,-31.250,0
1664554131.444,-65.430,-43.945,-26.855,-67.383,0
1664554131.448,-105.469,-45.410,-38.574,-106.934,0
1664554131.452,-74.219,-49.316,-41.016,-59.570,0
1664554131.456,-44.434,-50.293,-33.203,-20.508,0
1664554131.460,-62.500,-45.898,-38.574,-60.059,0
1664554131.464,-95.215,-47.363,-35.645,-105.469,0
1664554131.468,-55.664,-51.270,-32.227,-61.523,0
1664554131.471,-27.832,-55.176,-35.156,-19.043,0
1664554131.475,-62.012,-42.969,-49.805,-52.246,0
1664554131.479,-93.262,-38.574,-48.340,-107.422,0
1664554131.483,-83.984,-47.852,-35.156,-87.402,0
1664554131.487,-51.270,-52.734,-39.551,-30.762,0
1664554131.489,-54.199,-53.223,-50.293,-45.410,0
1664554131.493,-86.426,-48.340,-45.410,-95.215,0
1664554131.497,-90.332,-53.223,-36.621,-90.820,0
1664554131.501,-54.688,-48.828,-44.922,-38.574,0
1664554131.505,-47.852,-43.457,-47.852,-33.691,0
1664554131.509,-62.012,-50.293,-38.086,-70.312,0
1664554131.513,-70.312,-60.547,-22.949,-74.707,0
1664554131.516,-57.617,-62.500,-40.527,-35.156,0
1664554131.520,-58.594,-43.945,-72.266,-43.945,0
1664554131.524,-51.270,-39.062,-53.223,-61.035,0
1664554131.528,-87.891,-49.805,-38.086,-102.051,0
1664554131.532,-74.707,-54.199,-49.805,-79.102,0
1664554131.534,-42.969,-52.734,-58.594,-41.504,0
1664554131.538,-46.875,-51.758,-45.898,-41.992,0
1664554131.542,-84.961,-51.270,-39.551,-88.867,0
1664554131.546,-94.238,-42.480,-50.781,-100.586,0
1664554131.550,-50.293,-38.086,-46.387,-40.527,0
1664554131.554,-35.156,-54.688,-36.621,-31.738,0
1664554131.558,-67.383,-64.453,-36.621,-72.266,0
1664554131.561,-103.027,-59.082,-46.875,-104.004,0
1664554131.565,-69.336,-45.898,-55.176,-60.059,0
1664554131.569,-39.551,-44.922,-43.457,-21.973,0
1664554131.573,-58.105,-55.664,-39.062,-53.223,0
1664554131.577,-107.910,-44.434,-58.594,-122.559,0
1664554131.594,-74.219,-38.086,-55.664,-83.008,0
1664554131.598,-37.109,-51.758,-48.340,-32.715,0
1664554131.602,-58.105,-53.711,-49.805,-64.453,0
1664554131.606,-106.934,-45.410,-45.410,-125.977,0
1664554131.610,-84.961,-49.316,-40.039,-93.262,0
1664554131.614,-35.156,-59.570,-26.855,-16.113,0
1664554131.618,-44.922,-68.848,-32.227,-32.715,0
1664554131.621,-84.473,-57.129,-52.734,-102.539,0
1664554131.625,-95.703,-42.480,-61.035,-109.863,0
1664554131.629,-65.430,-39.551,-57.129,-53.223,0
1664554131.633,-61.035,-33.691,-66.895,-59.082,0
1664554131.637,-79.102,-20.996,-76.172,-118.652,0
1664554131.639,-95.703,-20.996,-73.730,-141.602,0
1664554131.643,-61.523,-23.926,-79.102,-80.566,0
1664554131.647,-43.945,-17.578,-88.867,-57.617,0
1664554131.651,-58.594,-10.254,-95.215,-94.238,0
1664554131.655,-84.473,-8.789,-90.820,-131.348,0
1664554131.659,-63.477,-16.113,-79.590,-95.215,0
1664554131.663,-38.086,-16.113,-84.473,-61.035,0
1664554131.666,-48.828,-15.137,-92.773,-84.473,0
1664554131.670,-83.008,-22.461,-72.266,-122.070,0
1664554131.674,-66.895,-29.785,-64.941,-87.402,0
1664554131.678,-42.969,-17.578,-91.797,-66.406,0
1664554131.682,-38.086,-7.324,-90.332,-73.242,0
1664554131.684,-56.152,-17.578,-70.312,-84.473,0
1664554131.688,-66.895,-16.113,-68.359,-89.844,0
1664554131.692,-41.992,-17.090,-74.707,-47.852,0
1664554131.696,-26.855,-20.020,-65.918,-32.227,0
1664554131.700,-45.898,-23.926,-49.805,-67.871,0
1664554131.704,-76.172,-33.203,-48.340,-98.633,0
1664554131.708,-52.246,-31.738,-66.406,-63.477,0
1664554131.711,-42.480,-31.250,-72.754,-48.828,0
1664554131.715,-40.527,-46.387,-44.922,-43.457,0
1664554131.719,-83.496,-44.922,-49.316,-91.309,0
1664554131.723,-82.031,-28.809,-75.195,-99.609,0
